%OpenBCI Raw EXG Data
%Number of channels = 16
%Sample Rate = 125 Hz
%Board = OpenBCI_GUI$BoardCytonSerialDaisy
Sample Index, EXG Channel 0, EXG Channel 1, EXG Channel 2, EXG Channel 3, EXG Channel 4, EXG Channel 5, EXG Channel 6, EXG Channel 7, EXG Channel 8, EXG Channel 9, EXG Channel 10, EXG Channel 11, EXG Channel 12, EXG Channel 13, EXG Channel 14, EXG Channel 15, Accel Channel 0, Accel Channel 1, Accel Channel 2, Not Used, Digital Channel 0 (D11), Digital Channel 1 (D12), Digital Channel 2 (D13), Digital Channel 3 (D17), Not Used, Digital Channel 4 (D18), Analog Channel 0, Analog Channel 1, Analog Channel 2, Timestamp, Marker Channel, Timestamp (Formatted)
0.0, -34770.99952352042, -4975.36420528462, -3867.589398335147, -13306.954599255872, -36891.28600255084, -34903.61242337375, -38171.75038716202, -36826.153019208075, -24231.257943064924, -24659.606773806427, -18192.93417846372, -20749.750226706296, -24060.557670659742, -48915.38458053882, -45582.06892991888, -48431.514016570334, -0.27, 0.756, -0.516, 192.0, 123.5, 72.0, 11.5, 80.0, 119.5, 112.0, 0.0, 0.0, 0.0, 1.769892762368094E9, 0.0, 2026-01-31 14:52:42.368
2.0, -69528.65505560102, -9992.995559334226, -7761.0397650050845, -26611.897541510767, -73706.44196348691, -69812.41045146114, -76356.19656517466, -73760.53318506875, -74178.39904766071, -77149.97406601597, -7556.20837881665, -7548.720544424123, -74127.95116042509, -71296.45452457125, -60971.20028390888, -29701.713288034596, -0.27, 0.756, -0.516, 192.0, 0.0, 0.0, 0.0, 0.0, 0.0, 0.0, 0.0, 0.0, 0.0, 1.76989276237412E9, 0.0, 2026-01-31 14:52:42.374
4.0, -69480.19647362191, -9995.566009946586, -7763.051422006062, -26599.380564615796, -73687.19711151089, -69796.94304429807, -76350.7203877831, -73883.84775922868, -74113.15430559567, -77083.96936463944, -7563.942082398186, -7545.25602403355, -74051.77641532141, -71297.10272516045, -60973.90484498798, -29709.670509060685, -0.27, 0.756, -0.516, 192.0, 0.0, 0.0, 0.0, 0.0, 0.0, 0.0, 0.0, 0.0, 0.0, 1.769892762382099E9, 0.0, 2026-01-31 14:52:42.382
6.0, -69454.80489192068, -10028.087798129058, -7769.913407553841, -26597.36890761482, -73644.19235517888, -69781.43093364609, -76328.45805030562, -73987.87277792368, -74095.1387995647, -77064.16571905205, -7561.036355618997, -7530.705038393145, -74038.0747959703, -71275.26507082762, -60987.4947056168, -29711.659814317205, -0.27, 0.756, -0.516, 192.0, 0.0, 0.0, 0.0, 0.0, 0.0, 0.0, 0.0, 0.0, 0.0, 1.769892762390124E9, 0.0, 2026-01-31 14:52:42.390
8.0, -69414.70586236786, -10033.385161564966, -7745.1923781862715, -26587.444733076663, -73658.05043674118, -69752.64188678765, -76276.13261653575, -74051.77641532141, -74069.4342934411, -77038.84119258418, -7553.615576459834, -7524.826529601399, -74002.3120048418, -71279.26603308512, -60985.46069687137, -29719.617035343297, -0.192, 0.8220000000000001, -0.494, 192.0, 125.0, 0.0, 12.5, 88.0, 120.0, 72.0, 0.0, 0.0, 0.0, 1.769892762398165E9, 0.0, 2026-01-31 14:52:42.398
10.0, -69395.34925166956, -10048.718458261306, -7744.655936319344, -26584.606061530838, -73648.77446279222, -69735.54280227933, -76229.93156074663, -74080.87838660221, -74090.55669195137, -77060.32121900574, -7540.964489098131, -7511.482538161581, -74026.67540629809, -71271.57703299249, -60982.890246259005, -29726.926055780183, -0.192, 0.8220000000000001, -0.494, 192.0, 0.0, 0.0, 0.0, 0.0, 0.0, 0.0, 0.0, 0.0, 0.0, 1.769892762407167E9, 0.0, 2026-01-31 14:52:42.407
12.0, -69367.18605365587, -10057.23447289878, -7734.754113525643, -26579.040477161467, -73660.06209374215, -69728.23378184244, -76195.66633649664, -74093.52947396392, -74072.51883417593, -77043.42330019752, -7544.764285655533, -7518.925669065198, -74006.98351943296, -71291.91712044681, -60965.16531290595, -29735.620884373297, -0.192, 0.8220000000000001, -0.494, 192.0, 0.0, 0.0, 0.0, 0.0, 0.0, 0.0, 0.0, 0.0, 0.0, 1.769892762414129E9, 0.0, 2026-01-31 14:52:42.414
14.0, -69351.7186464928, -10065.728135791795, -7761.062116749539, -26586.148331898254, -73624.94750320286, -69733.41938655608, -76191.44185679458, -74120.53038126593, -74080.61016566875, -77048.63125665562, -7548.16175081274, -7517.472805675603, -74016.01362419291, -71294.91225420384, -60952.35776333306, -29741.23117223158, -0.192, 0.8220000000000001, -0.494, 192.0, 0.0, 0.0, 0.0, 0.0, 0.0, 0.0, 0.0, 0.0, 0.0, 1.769892762422213E9, 0.0, 2026-01-31 14:52:42.422
16.0, -69324.65068395743, -10083.274255189212, -7775.210770989749, -26591.35628835634, -73593.69976445434, -69743.6117820277, -76197.85680745325, -74147.7548060125, -74025.2225429085, -76992.01428795031, -7571.07228887943, -7536.270622762517, -73961.05068457732, -71324.66242607385, -60941.45011203887, -29750.59655315835, -0.192, 0.8220000000000001, -0.494, 192.0, 0.0, 0.0, 0.0, 0.0, 0.0, 0.0, 0.0, 0.0, 0.0, 1.769892762430218E9, 0.0, 2026-01-31 14:52:42.430
18.0, -69297.85094235551, -10084.727118578807, -7804.178631803827, -26595.379602358295, -73546.00114178672, -69756.19581415603, -76212.3407378603, -74186.15510298671, -74006.98351943296, -76972.52356678528, -7573.888608680798, -7534.594241928368, -73943.32575122426, -71325.82471678552, -60931.525937500715, -29754.061073548924, -0.14200000000000002, 0.834, -0.496, 192.0, 125.5, 72.0, 13.0, 8.0, 120.0, 64.0, 0.0, 0.0, 0.0, 1.769892762438266E9, 0.0, 2026-01-31 14:52:42.438
20.0, -69272.41465716537, -10114.656104404463, -7815.913297642863, -26591.043363933964, -73515.17808618284, -69758.98978221296, -76211.35726110426, -74220.6214929368, -73942.67755063505, -76906.98825204233, -7589.512478055058, -7546.6194804453235, -73878.93037544852, -71346.36596993994, -60927.50262349876, -29767.785044644483, -0.14200000000000002, 0.834, -0.496, 192.0, 0.0, 0.0, 0.0, 0.0, 0.0, 0.0, 0.0, 0.0, 0.0, 1.769892762446187E9, 0.0, 2026-01-31 14:52:42.446
22.0, -69230.25926712266, -10111.035121802703, -7835.806350208087, -26582.504997552038, -73511.42299311436, -69743.14239539414, -76221.99669146498, -74226.05296683943, -73944.68920763602, -76908.23994973183, -7586.562047786957, -7532.426122716203, -73874.30356434626, -71331.591466855, -60925.53566998669, -29770.13197781229, -0.14200000000000002, 0.834, -0.496, 192.0, 0.0, 0.0, 0.0, 0.0, 0.0, 0.0, 0.0, 0.0, 0.0, 1.769892762454296E9, 0.0, 2026-01-31 14:52:42.454
24.0, -69201.85019991997, -10150.15067459949, -7852.1454754049155, -26573.318430580908, -73538.64741786092, -69717.3037788038, -76201.36603133274, -74193.93351005716, -73932.57456214125, -76895.38769667002, -7605.046940451496, -7530.973259326609, -73862.50184327386, -71339.45928090326, -60934.096388113074, -29775.049361592457, -0.14200000000000002, 0.834, -0.496, 192.0, 0.0, 0.0, 0.0, 0.0, 0.0, 0.0, 0.0, 0.0, 0.0, 1.769892762463272E9, 0.0, 2026-01-31 14:52:42.463
26.0, -69162.60053665645, -10155.91742466896, -7883.907304275907, -26569.049247389943, -73588.98354637428, -69700.31645301777, -76162.04931283585, -74133.98613142803, -73995.87470243868, -76959.17957534546, -7608.511460842069, -7511.884869561776, -73924.46087890398, -71328.19400169779, -60930.2295363223, -29764.499338209553, -0.14200000000000002, 0.834, -0.496, 192.0, 0.0, 0.0, 0.0, 0.0, 0.0, 0.0, 0.0, 0.0, 0.0, 1.769892762469348E9, 0.0, 2026-01-31 14:52:42.469
28.0, -69149.52476615009, -10222.547974890229, -7914.238621501759, -26590.26105287803, -73606.10498262703, -69703.11042107469, -76110.57324535528, -74053.94453453357, -74007.721127, -76969.8190057062, -7635.244147210616, -7509.96261953862, -73939.32478896675, -71335.54772562358, -60930.6318677225, -29765.88514636578, -0.10200000000000001, 0.8320000000000001, -0.5, 192.0, 126.0, 104.0, 13.0, 0.0, 120.0, 48.0, 0.0, 0.0, 0.0, 1.769892762478303E9, 0.0, 2026-01-31 14:52:42.478
30.0, -69111.66091104281, -10238.618879153595, -7935.875110134496, -26623.475745138618, -73624.2769508692, -69706.1502583206, -76088.31090787779, -73975.35580102871, -74047.1272524747, -77009.47100036991, -7649.146932261817, -7507.794500326455, -73974.84171090624, -71339.03459775861, -60912.54930645815, -29775.36228601483, -0.10200000000000001, 0.8320000000000001, -0.5, 192.0, 0.0, 0.0, 0.0, 0.0, 0.0, 0.0, 0.0, 0.0, 0.0, 1.769892762486338E9, 0.0, 2026-01-31 14:52:42.486
32.0, -69102.87667547187, -10315.263010890843, -7950.671964963909, -26675.778827164035, -73596.0243458777, -69721.32709280576, -76073.08936990373, -73918.67177709006, -74024.23906615247, -76985.666392525, -7670.157572049806, -7528.626326158801, -73952.17704202856, -71358.07828403453, -60897.08189929508, -29803.503132284062, -0.10200000000000001, 0.8320000000000001, -0.5, 192.0, 0.0, 0.0, 0.0, 0.0, 0.0, 0.0, 0.0, 0.0, 0.0, 1.769892762493315E9, 0.0, 2026-01-31 14:52:42.493
34.0, -69067.35975353238, -10329.590479086695, -7948.481494007289, -26714.51440030508, -73571.83975837706, -69735.11811913468, -76075.10102690471, -73882.55135805027, -74014.0690224253, -76977.86563371011, -7671.342214505937, -7555.269605549527, -73937.69311162151, -71375.80321738758, -60865.454180890825, -29838.505964101074, -0.10200000000000001, 0.8320000000000001, -0.5, 192.0, 0.0, 0.0, 0.0, 0.0, 0.0, 0.0, 0.0, 0.0, 0.0, 1.769892762503573E9, 0.0, 2026-01-31 14:52:42.503
36.0, -69045.56680268847, -10389.29198852682, -7940.703086936843, -26744.890421019845, -73511.95943498128, -69773.63017483118, -76087.28272763285, -73829.9800550914, -73955.88743160813, -76921.51688593828, -7677.555999464513, -7595.145117657795, -73886.99935519688, -71412.81770620558, -60848.48920684925, -29885.511682690583, -0.10200000000000001, 0.8320000000000001, -0.5, 192.0, 0.0, 0.0, 0.0, 0.0, 0.0, 0.0, 0.0, 0.0, 0.0, 1.769892762509524E9, 0.0, 2026-01-31 14:52:42.509
38.0, -68981.9313862242, -10361.128790513134, -7928.610793186521, -26752.020627501086, -73493.65335627239, -69820.56883818732, -76126.68885310755, -73782.23672893486, -73928.5959516282, -76897.01937401526, -7659.518141689079, -7619.9332022587305, -73854.41051178104, -71454.39195089244, -60816.36975006697, -29928.650549489328, -0.101, 0.8270000000000001, -0.506, 192.0, 126.0, 112.0, 12.5, 88.0, 120.0, 0.0, 0.0, 0.0, 0.0, 1.76989276251834E9, 0.0, 2026-01-31 14:52:42.518
40.0, -68941.54178399347, -10379.72544189995, -7937.931470624384, -26749.53958386655, -73417.85859082444, -69887.4452575976, -76193.11823762873, -73746.74215873983, -73868.31329683225, -76835.37326280752, -7653.192598008228, -7632.159606475784, -73796.20656921943, -71493.44044845586, -60813.88870643243, -29965.68739005177, -0.101, 0.8270000000000001, -0.506, 192.0, 0.0, 0.0, 0.0, 0.0, 0.0, 0.0, 0.0, 0.0, 0.0, 1.769892762526347E9, 0.0, 2026-01-31 14:52:42.526
42.0, -68862.9530504886, -10345.1919967165, -7952.705973709342, -26720.77288875257, -73400.08895398247, -69942.94463908013, -76252.81974706886, -73732.07941437715, -73820.54761893125, -76787.51817792871, -7642.329650202948, -7626.772836062055, -73753.20181288742, -71522.05068135867, -60811.58647675353, -29986.183939717288, -0.101, 0.8270000000000001, -0.506, 192.0, 0.0, 0.0, 0.0, 0.0, 0.0, 0.0, 0.0, 0.0, 0.0, 1.769892762533353E9, 0.0, 2026-01-31 14:52:42.533
44.0, -68812.14753534169, -10377.66908141006, -8018.174233218937, -26666.569908448448, -73370.04820943454, -69969.18558707066, -76277.16079678069, -73737.9579231689, -73794.35137442964, -76757.47743338079, -7648.61049039489, -7596.463870580658, -73728.48078351984, -71515.16634406643, -60840.911965478896, -29984.462855394228, -0.101, 0.8270000000000001, -0.506, 192.0, 0.0, 0.0, 0.0, 0.0, 0.0, 0.0, 0.0, 0.0, 0.0, 1.769892762541393E9, 0.0, 2026-01-31 14:52:42.541
46.0, -68733.20117392554, -10371.298834240299, -8096.159469623503, -26567.01523864451, -73431.35904447545, -69924.61620862677, -76264.10737801879, -73769.42917936196, -73812.7245083719, -76772.63191612148, -7661.909778345797, -7535.912994851232, -73744.17170812747, -71477.66011687042, -60869.81277105961, -29948.253029376632, -0.101, 0.8270000000000001, -0.506, 192.0, 0.0, 0.0, 0.0, 0.0, 0.0, 0.0, 0.0, 0.0, 0.0, 1.769892762550412E9, 0.0, 2026-01-31 14:52:42.550
48.0, -68691.87279842768, -10448.904090989125, -8208.029950622315, -26475.261327655477, -73451.76618716314, -69848.75438794546, -76191.48656028349, -73877.3881050811, -73861.6301252401, -76816.7766114207, -7700.310075320015, -7444.382601306749, -73798.30763319822, -71397.73027869825, -60939.907841671455, -29902.878988132357, -0.0685, 0.8365, -0.52, 192.0, 127.0, 112.0, 13.0, 56.0, 119.5, 40.0, 0.0, 0.0, 0.0, 1.769892762558451E9, 0.0, 2026-01-31 14:52:42.558
50.0, -68685.79312393584, -10506.12455679471, -8290.552591151309, -26359.658105332626, -73535.56287712608, -69719.94128464953, -76015.55597967577, -74030.11757494422, -73893.21314015545, -76858.46261482986, -7731.8707384909085, -7352.293414150884, -73831.63408418109, -71305.70814677574, -60986.69004281641, -29841.255228669077, -0.0685, 0.8365, -0.52, 192.0, 0.0, 0.0, 0.0, 0.0, 0.0, 0.0, 0.0, 0.0, 0.0, 1.769892762565564E9, 0.0, 2026-01-31 14:52:42.565
52.0, -68738.69970306155, -10629.550889676917, -8364.045126920359, -26265.512557686874, -73580.28871778116, -69582.6792219495, -75855.47278588686, -74259.82645271141, -73981.18960633155, -76939.53239196926, -7771.0756982655175, -7256.493837415438, -73915.38607065512, -71163.81927297346, -61049.2078720579, -29737.766651841004, -0.0685, 0.8365, -0.52, 192.0, 0.0, 0.0, 0.0, 0.0, 0.0, 0.0, 0.0, 0.0, 0.0, 1.769892762575536E9, 0.0, 2026-01-31 14:52:42.575
54.0, -68765.41003768564, -10748.551577156972, -8377.433821849087, -26229.23567643591, -73594.48207551028, -69434.889487611, -75694.69668801985, -74607.59724469153, -73996.00881290542, -76953.92691539848, -7816.896774398897, -7195.51827854136, -73930.0488150178, -71099.66976638672, -61061.478979763866, -29657.076854357347, -0.0685, 0.8365, -0.52, 192.0, 0.0, 0.0, 0.0, 0.0, 0.0, 0.0, 0.0, 0.0, 0.0, 1.769892762585575E9, 0.0, 2026-01-31 14:52:42.585
56.0, -68836.39917807569, -10871.083840260964, -8373.589321802774, -26265.736075131426, -73581.65217419293, -69305.87521861496, -75491.2734617321, -74815.49081987033, -74002.62492926419, -76962.8676131806, -7846.825760224553, -7162.840028147702, -73931.5463818963, -71110.95739733665, -61036.62383992957, -29621.58228416232, -0.0685, 0.8365, -0.52, 192.0, 0.0, 0.0, 0.0, 0.0, 0.0, 0.0, 0.0, 0.0, 0.0, 1.769892762591614E9, 0.0, 2026-01-31 14:52:42.591
58.0, -68897.39708869423, -10966.637547807402, -8342.855673176728, -26310.126639619666, -73611.13412512948, -69258.8918517699, -75257.20599379612, -74787.41702883448, -74006.82705722179, -76968.09792138315, -7870.138629691438, -7196.278237852841, -73926.13725973813, -71189.32261339696, -60978.88928400151, -29612.976862547024, -0.044250000000000005, 0.86425, -0.517, 192.0, 127.5, 48.0, 13.5, 112.0, 119.5, 120.0, 0.0, 0.0, 0.0, 1.76989276259859E9, 0.0, 2026-01-31 14:52:42.598
60.0, -68966.19575812767, -11078.57508403958, -8338.921766152593, -26368.55409962584, -73566.90002285242, -69337.32412306359, -75077.94500326455, -74720.96529256884, -74022.22740915148, -76982.04540992324, -7883.303807175614, -7241.629927352658, -73948.24313500442, -71258.21068980821, -60914.27039078122, -29632.266418011957, -0.044250000000000005, 0.86425, -0.517, 192.0, 0.0, 0.0, 0.0, 0.0, 0.0, 0.0, 0.0, 0.0, 0.0, 1.769892762608719E9, 0.0, 2026-01-31 14:52:42.608
62.0, -69002.76321205655, -11190.64673073849, -8316.212393786001, -26416.409184504653, -73502.97403371026, -69455.27427855424, -74938.40306263007, -74726.26265600475, -73944.28687623583, -76902.33908919562, -7920.1171302935045, -7319.235184101485, -73865.11699737514, -71378.35131625549, -60852.95955574031, -29691.386782096244, -0.044250000000000005, 0.86425, -0.517, 192.0, 0.0, 0.0, 0.0, 0.0, 0.0, 0.0, 0.0, 0.0, 0.0, 1.769892762614665E9, 0.0, 2026-01-31 14:52:42.614
64.0, -69047.15377654479, -11290.223752286882, -8319.45339673202, -26444.013588906957, -73415.31049195654, -69601.49939078085, -74847.47616618588, -74697.49596089077, -73887.71461101944, -76844.82805071212, -7933.349363011046, -7392.995940803999, -73809.23763623687, -71471.53573888967, -60781.12104906095, -29735.777346584484, -0.044250000000000005, 0.86425, -0.517, 192.0, 0.0, 0.0, 0.0, 0.0, 0.0, 0.0, 0.0, 0.0, 0.0, 1.76989276262175E9, 0.0, 2026-01-31 14:52:42.621
66.0, -69088.68331774275, -11409.984399078417, -8310.557402438808, -26476.04363871141, -73331.22322931567, -69762.00726771442, -74779.99624967531, -74594.23090150725, -73778.99572598883, -76733.87399123597, -7947.945052140361, -7488.7955175394445, -73697.1436377935, -71605.86972306606, -60719.22906866421, -29793.869530423824, -0.044250000000000005, 0.86425, -0.517, 192.0, 0.0, 0.0, 0.0, 0.0, 0.0, 0.0, 0.0, 0.0, 0.0, 1.76989276262959E9, 0.0, 2026-01-31 14:52:42.629
68.0, -69113.22553315468, -11510.32137993829, -8313.351370495722, -26530.939523093646, -73227.22056236512, -69925.28676096043, -74728.5872374281, -74519.0843366485, -73711.35934726708, -76665.32119099156, -7950.023764374705, -7570.893474923787, -73627.4285468374, -71724.60218961265, -60660.44398074675, -29851.738196818616, -0.037125000000000005, 0.893125, -0.5135000000000001, 192.0, 127.5, 8.0, 14.0, 104.0, 120.0, 8.0, 0.0, 0.0, 0.0, 1.769892762638636E9, 0.0, 2026-01-31 14:52:42.638
70.0, -69155.82795808649, -11658.245224743512, -8294.844126086728, -26593.54675931296, -73118.09934593432, -70047.34963743087, -74648.366826578, -74509.47308653273, -73582.59094746005, -76533.64706440533, -7968.262787850236, -7660.523970189568, -73493.87687371694, -71870.1120460167, -60597.61322708288, -29918.30169180652, -0.037125000000000005, 0.893125, -0.5135000000000001, 192.0, 0.0, 0.0, 0.0, 0.0, 0.0, 0.0, 0.0, 0.0, 0.0, 1.769892762646637E9, 0.0, 2026-01-31 14:52:42.646
72.0, -69212.91431342534, -11799.217677023134, -8287.892733561128, -26666.83812938191, -73009.80514404835, -70123.83730695694, -74526.3933570854, -74527.6450547749, -73501.38705985392, -76451.83967969891, -7984.490154324789, -7735.514072837123, -73415.06462276753, -71995.81825683336, -60513.97299933112, -29970.962401743225, -0.037125000000000005, 0.893125, -0.5135000000000001, 192.0, 0.0, 0.0, 0.0, 0.0, 0.0, 0.0, 0.0, 0.0, 0.0, 1.769892762654627E9, 0.0, 2026-01-31 14:52:42.654
74.0, -69292.62063415298, -12027.47369140073, -8276.023957255358, -26753.182918212762, -72862.37303762115, -70218.69811042525, -74372.45689302169, -74544.38651137192, -73357.53123253956, -76302.73119243755, -8022.4434164099, -7846.445780568813, -73268.01249599607, -72167.56906122793, -60440.905146706726, -30040.65514095487, -0.037125000000000005, 0.893125, -0.5135000000000001, 192.0, 0.0, 0.0, 0.0, 0.0, 0.0, 0.0, 0.0, 0.0, 0.0, 1.769892762664799E9, 0.0, 2026-01-31 14:52:42.664
76.0, -69350.91398369242, -12240.284650359708, -8261.294157659311, -26827.79304120458, -72724.37336735408, -70334.79307112611, -74231.97617912009, -74537.90450547988, -73238.77641424852, -76181.24946132296, -8063.995309352316, -7966.988738416284, -73143.89325903574, -72330.13329865137, -60371.1006487728, -30124.787107084645, -0.037125000000000005, 0.893125, -0.5135000000000001, 192.0, 0.0, 0.0, 0.0, 0.0, 0.0, 0.0, 0.0, 0.0, 0.0, 1.769892762671764E9, 0.0, 2026-01-31 14:52:42.671
78.0, -69421.38903395999, -12513.266505392374, -8235.947279446993, -26889.059172756573, -72565.00542938775, -70464.99198257829, -74102.76074442395, -74491.50228399066, -73068.63493545473, -76009.05162203927, -8094.907771934006, -8101.546240037232, -72973.23769011948, -72514.7140043633, -60317.41175859115, -30224.140611188486, -0.05456250000000001, 0.9115625, -0.50075, 192.0, 126.5, 96.0, 14.5, 8.0, 120.0, 96.0, 0.0, 0.0, 0.0, 1.769892762678727E9, 0.0, 2026-01-31 14:52:42.678
80.0, -69458.26941231125, -12706.60909493078, -8224.659648497063, -26939.149432080918, -72467.14949216241, -70589.82647536117, -74015.63364453717, -74365.48314875163, -72958.48553877897, -75897.85169337412, -8095.131289378559, -8201.704406941462, -72855.68986602902, -72706.73784097885, -60258.24669101795, -30327.8080019722, -0.05456250000000001, 0.9115625, -0.50075, 192.0, 0.0, 0.0, 0.0, 0.0, 0.0, 0.0, 0.0, 0.0, 0.0, 1.769892762685799E9, 0.0, 2026-01-31 14:52:42.685
82.0, -69533.75125333683, -12954.601699662411, -8228.3923898211, -27020.241560964772, -72316.45403104473, -70737.90678237758, -73935.01090228689, -74192.52535015647, -72821.33523480121, -75759.31558124014, -8111.313952364201, -8291.49136441843, -72722.65228303103, -72913.15620102361, -60220.606353355215, -30433.196477078975, -0.05456250000000001, 0.9115625, -0.50075, 192.0, 0.0, 0.0, 0.0, 0.0, 0.0, 0.0, 0.0, 0.0, 0.0, 1.769892762693752E9, 0.0, 2026-01-31 14:52:42.693
84.0, -69588.04364061877, -13152.146417158416, -8236.506073058375, -27124.04306221522, -72159.2318605461, -70891.53032201891, -73873.52125329032, -74026.74246153147, -72679.89339588802, -75619.72893711674, -8133.889214264062, -8383.826420763306, -72578.70704873884, -73118.09934593432, -60181.1555243916, -30527.967873569476, -0.05456250000000001, 0.9115625, -0.50075, 192.0, 0.0, 0.0, 0.0, 0.0, 0.0, 0.0, 0.0, 0.0, 0.0, 1.769892762701833E9, 0.0, 2026-01-31 14:52:42.701
86.0, -69664.91128980057, -13439.858071787128, -8279.577884623754, -27241.367368861123, -71903.99729061095, -71072.78061780699, -73831.41056673654, -73946.32088498127, -72458.87934671395, -75397.19496931971, -8181.297264253768, -8500.211954142089, -72371.70754333826, -73328.31750253648, -60180.03793716883, -30635.189191721583, -0.05456250000000001, 0.9115625, -0.50075, 192.0, 0.0, 0.0, 0.0, 0.0, 0.0, 0.0, 0.0, 0.0, 0.0, 1.769892762709843E9, 0.0, 2026-01-31 14:52:42.709
88.0, -69702.7974966523, -13669.99163269897, -8330.092827092747, -27317.45270698699, -71688.88410197308, -71231.43329995076, -73813.93150257248, -73918.22474220094, -72226.8458875234, -75164.0886263953, -8222.96091591846, -8619.458510811151, -72133.14737476676, -73537.88745854943, -60176.90869294509, -30752.200573945116, -0.05456250000000001, 0.9115625, -0.50075, 192.0, 0.0, 0.0, 0.0, 0.0, 0.0, 0.0, 0.0, 0.0, 0.0, 1.769892762718886E9, 0.0, 2026-01-31 14:52:42.718
90.0, -69766.1646921831, -13965.414639164763, -8390.978978989004, -27382.161007185103, -71433.42601459337, -71385.83915064803, -73811.04812753775, -73890.32976512072, -71986.02819276192, -74918.88998972058, -8301.706111634507, -8724.377599284364, -71902.20915105453, -73726.08914686313, -60194.14188792013, -30862.908764232252, -0.112, 0.92, -0.47600000000000003, 192.0, 126.0, 64.0, 14.0, 96.0, 120.5, 16.0, 0.0, 0.0, 0.0, 1.769892762724885E9, 0.0, 2026-01-31 14:52:42.724
92.0, -69817.17137303011, -14198.878610000445, -8435.615412666251, -27426.462164695524, -71246.67718966928, -71518.87673364602, -73833.9810173489, -73828.59424693516, -71770.60207970168, -74703.30741444915, -8370.862408979227, -8816.310324229042, -71680.88217745807, -73912.56975085376, -60194.36540536468, -30952.807480431497, -0.112, 0.92, -0.47600000000000003, 192.0, 0.0, 0.0, 0.0, 0.0, 0.0, 0.0, 0.0, 0.0, 0.0, 1.769892762734928E9, 0.0, 2026-01-31 14:52:42.734
94.0, -69913.70855733259, -14478.81185755871, -8513.466538604085, -27473.333772818303, -70967.99563980052, -71672.58968026516, -73948.7572251269, -73789.47869413838, -71536.44520478787, -74466.13305403388, -8439.728133646027, -8893.356787366485, -71455.19661369284, -74086.24280527148, -60213.49849861843, -31028.915170301818, -0.112, 0.92, -0.47600000000000003, 192.0, 0.0, 0.0, 0.0, 0.0, 0.0, 0.0, 0.0, 0.0, 0.0, 1.769892762741927E9, 0.0, 2026-01-31 14:52:42.741
96.0, -69988.1175146243, -14706.844354491754, -8572.273978266, -27492.690383516598, -70792.13211442616, -71823.86628673867, -73961.52007121088, -73694.34966973659, -71298.66734727232, -74230.72448143059, -8496.523916306964, -8978.986320374766, -71203.00188100361, -74283.1840256672, -60223.80265281232, -31095.880996689917, -0.112, 0.92, -0.47600000000000003, 192.0, 0.0, 0.0, 0.0, 0.0, 0.0, 0.0, 0.0, 0.0, 0.0, 1.769892762751006E9, 0.0, 2026-01-31 14:52:42.751
98.0, -70092.2989955305, -14972.740706532088, -8643.911319245259, -27510.102392447283, -70587.90422533802, -71965.46458786304, -73934.96619879796, -73581.07102883709, -71128.70468243417, -74060.04656076987, -8552.582091400873, -9051.808303810156, -71035.60966677782, -74455.53832716207, -60249.57421416929, -31166.132529512946, -0.112, 0.92, -0.47600000000000003, 192.0, 0.0, 0.0, 0.0, 0.0, 0.0, 0.0, 0.0, 0.0, 0.0, 1.769892762757862E9, 0.0, 2026-01-31 14:52:42.757
100.0, -70149.56416482499, -15201.130831376415, -8682.646892386305, -27539.07025326136, -70429.6762263389, -72059.47602504207, -73926.6513498606, -73489.47358005925, -70927.44957535858, -73859.37259905013, -8613.691760741684, -9126.932516924444, -70834.48867016897, -74651.29490510165, -60262.78409514238, -31244.788318251172, -0.122, 0.912, -0.452, 192.0, 126.0, 24.0, 14.0, 64.0, 120.5, 112.0, 0.0, 0.0, 0.0, 1.76989276276594E9, 0.0, 2026-01-31 14:52:42.765
102.0, -70213.71367141172, -15468.122418895056, -8741.856663448414, -27614.686204753663, -70202.49309569516, -72158.9859913571, -73912.43564038702, -73429.32503573001, -70752.90480290708, -73685.7442481213, -8670.152267235788, -9199.016892792808, -70662.55905181874, -74824.0068345078, -60295.99878740297, -31318.01263308676, -0.122, 0.912, -0.452, 192.0, 0.0, 0.0, 0.0, 0.0, 0.0, 0.0, 0.0, 0.0, 0.0, 1.769892762772907E9, 0.0, 2026-01-31 14:52:42.772
104.0, -70271.76115176216, -15715.712692226494, -8811.41529219333, -27717.81715367045, -69972.91832839469, -72285.69803067423, -73919.27527419034, -73365.53315705457, -70516.46805005886, -73450.62624819593, -8744.315355338496, -9309.903897035587, -70425.00471174774, -75044.12681390367, -60329.526404085926, -31409.990061520348, -0.122, 0.912, -0.452, 192.0, 0.0, 0.0, 0.0, 0.0, 0.0, 0.0, 0.0, 0.0, 0.0, 1.769892762780958E9, 0.0, 2026-01-31 14:52:42.780
106.0, -70336.91648684937, -15956.105703843321, -8925.409188915395, -27824.859657866917, -69689.60996742368, -72452.37498907745, -73944.08571053573, -73322.68486293375, -70264.07215166952, -73197.49274223957, -8808.46486192523, -9409.7714912619, -70178.30850819452, -75226.29353121443, -60381.538913433425, -31506.90722547856, -0.122, 0.912, -0.452, 192.0, 0.0, 0.0, 0.0, 0.0, 0.0, 0.0, 0.0, 0.0, 0.0, 1.769892762791023E9, 0.0, 2026-01-31 14:52:42.791
108.0, -70376.94846116882, -16187.62507291139, -9033.099893701065, -27930.784574840614, -69404.62522561851, -72638.22974422332, -73972.02539110486, -73272.23697569812, -69956.60155494232, -72891.67617460206, -8882.382080838928, -9521.21728911606, -69869.49680679999, -75432.15309764781, -60433.618478014294, -31614.821447708782, -0.122, 0.912, -0.452, 192.0, 0.0, 0.0, 0.0, 0.0, 0.0, 0.0, 0.0, 0.0, 0.0, 1.769892762799102E9, 0.0, 2026-01-31 14:52:42.799
110.0, -70417.00278723273, -16417.244543700763, -9165.377517387571, -28042.140965716957, -69040.35884623037, -72832.75697621786, -74155.62262006076, -73250.15345217627, -69666.7441328459, -72603.49513333978, -8936.450950676317, -9605.013979079005, -69592.02225113181, -75601.75813457467, -60490.68248160869, -31710.50926572195, -0.132, 0.85, -0.438, 192.0, 125.5, 112.0, 13.0, 72.0, 121.0, 40.0, 0.0, 0.0, 0.0, 1.769892762807102E9, 0.0, 2026-01-31 14:52:42.807
112.0, -70442.21555497832, -16664.790113543288, -9290.07789970373, -28137.918190707947, -68657.62992592216, -73000.75268754395, -74379.2071198472, -73290.18542649572, -69250.35348538798, -72186.88096843731, -9009.138823644975, -9701.372349425836, -69180.54898745407, -75798.47583752582, -60551.92626141623, -31815.987147806543, -0.132, 0.85, -0.438, 192.0, 0.0, 0.0, 0.0, 0.0, 0.0, 0.0, 0.0, 0.0, 0.0, 1.76989276281312E9, 0.0, 2026-01-31 14:52:42.813
114.0, -70461.16983427643, -16884.753630727962, -9426.401189136648, -28213.131810800056, -68284.91458712991, -73090.02555489846, -74469.10583604644, -73460.2374983117, -68896.07833577137, -71835.3550833887, -9080.17266752394, -9769.969853159173, -68829.8948204392, -75953.75340625684, -60615.29345694703, -31911.831428030902, -0.132, 0.85, -0.438, 192.0, 0.0, 0.0, 0.0, 0.0, 0.0, 0.0, 0.0, 0.0, 0.0, 1.769892762822122E9, 0.0, 2026-01-31 14:52:42.822
116.0, -70486.09202934409, -17128.67821796873, -9558.656461078699, -28280.991706966368, -67918.59184725188, -73165.84267209086, -74537.05513919058, -73612.4752297968, -68500.05012751224, -71439.25981989621, -9166.673918565979, -9841.80835983853, -68433.37487380205, -76125.8171350738, -60704.029882434595, -32010.827304223458, -0.132, 0.85, -0.438, 192.0, 0.0, 0.0, 0.0, 0.0, 0.0, 0.0, 0.0, 0.0, 0.0, 1.769892762829142E9, 0.0, 2026-01-31 14:52:42.829
118.0, -70510.41072731146, -17327.407577920865, -9690.911733020752, -28348.60573394367, -67539.26039210086, -73275.88031004433, -74595.48259919675, -73712.25341704529, -68161.26473680315, -71099.69211813118, -9246.089666615686, -9900.347578566978, -68093.69541331475, -76261.40281693969, -60799.02479636965, -32099.49667447766, -0.132, 0.85, -0.438, 192.0, 0.0, 0.0, 0.0, 0.0, 0.0, 0.0, 0.0, 0.0, 0.0, 1.769892762837146E9, 0.0, 2026-01-31 14:52:42.837
120.0, -70561.12683548055, -17588.990043281323, -9821.937659017762, -28444.67353161258, -67099.22159900924, -73441.86436436944, -74627.84792516804, -73872.24720385637, -67731.53009790542, -70668.70578154395, -9347.030144575852, -9999.4105099929, -67672.9685274325, -76432.23719981161, -60895.24905624975, -32189.171873232353, -0.15, 0.852, -0.402, 192.0, 125.5, 40.0, 13.0, 80.0, 121.5, 56.0, 0.0, 0.0, 0.0, 1.769892762845125E9, 0.0, 2026-01-31 14:52:42.845
122.0, -70588.82064686068, -17788.635824756126, -9967.983957288738, -28544.205849672064, -66644.8329859773, -73612.4752297968, -74685.627184585, -74124.48664003452, -67300.49905782928, -70237.60768623445, -9441.689782344078, -10094.159554738946, -67235.90251635344, -76589.12409414341, -60982.39850788099, -32288.704191291836, -0.15, 0.852, -0.402, 192.0, 0.0, 0.0, 0.0, 0.0, 0.0, 0.0, 0.0, 0.0, 0.0, 1.769892762854248E9, 0.0, 2026-01-31 14:52:42.854
124.0, -70625.56691474521, -18035.309676564895, -10116.891278849993, -28651.449519568625, -66167.9138145344, -73803.89556931205, -74725.21212401535, -74317.24808421709, -66813.43219440368, -69750.7643402534, -9556.913025011185, -10203.616047336585, -66757.73164722105, -76761.27722993818, -61080.835590462164, -32395.59023327711, -0.15, 0.852, -0.402, 192.0, 0.0, 0.0, 0.0, 0.0, 0.0, 0.0, 0.0, 0.0, 0.0, 1.769892762863123E9, 0.0, 2026-01-31 14:52:42.863
126.0, -70626.63979847907, -18199.684405289223, -10259.853036386137, -28757.977933642618, -65716.31916955939, -73989.75032445793, -74783.61723227707, -74480.43817048529, -66371.7617239668, -69311.48550647325, -9655.640680270277, -10303.774214240815, -66317.4022814515, -76914.23021724584, -61181.28433004431, -32506.231368330882, -0.15, 0.852, -0.402, 192.0, 0.0, 0.0, 0.0, 0.0, 0.0, 0.0, 0.0, 0.0, 0.0, 1.769892762871327E9, 0.0, 2026-01-31 14:52:42.871
128.0, -70640.98961841936, -18416.563381739066, -10398.523258986863, -28875.90573738882, -65211.90735243647, -74198.78383860397, -74863.61412568261, -74650.44553881235, -65865.82998822094, -68806.2913782944, -9763.510199011589, -10420.807948208803, -65812.85635386186, -77090.58548099823, -61294.898247110636, -32630.574122735754, -0.15, 0.852, -0.402, 192.0, 0.0, 0.0, 0.0, 0.0, 0.0, 0.0, 0.0, 0.0, 0.0, 1.76989276287822E9, 0.0, 2026-01-31 14:52:42.878
130.0, -70612.60290296112, -18535.65347619694, -10522.17310931362, -28959.277744207116, -64757.96577429364, -74387.63372750685, -74962.43118791953, -74853.62289591109, -65394.722270336424, -68339.07286394511, -9851.643127398864, -10532.834891418803, -65342.866223200115, -77260.54814583638, -61387.07684124433, -32746.95965611454, -0.164, 0.854, -0.374, 192.0, 125.0, 112.0, 13.0, 88.0, 122.0, 40.0, 0.0, 0.0, 0.0, 1.769892762886184E9, 0.0, 2026-01-31 14:52:42.886
132.0, -70611.8652953941, -18719.89890574204, -10654.517788233494, -29006.37286977445, -64278.9231871275, -74558.33399991202, -75076.0674567303, -75065.9197647476, -64919.144203560856, -67860.99140179055, -9941.474788364743, -10633.708314145602, -64868.65161283632, -77409.7236883311, -61497.24858966453, -32858.22664001306, -0.164, 0.854, -0.374, 192.0, 0.0, 0.0, 0.0, 0.0, 0.0, 0.0, 0.0, 0.0, 0.0, 1.76989276289319E9, 0.0, 2026-01-31 14:52:42.893
134.0, -70579.03058278926, -18825.77911922683, -10772.736164657614, -28982.858834607465, -63916.80257520707, -74667.90225123195, -75201.7513158025, -75282.97755515308, -64501.90418981364, -67444.91367875501, -10019.571783491587, -10701.724672523103, -64447.120064153685, -77525.68453856523, -61613.254143387574, -32941.88921950927, -0.164, 0.854, -0.374, 192.0, 0.0, 0.0, 0.0, 0.0, 0.0, 0.0, 0.0, 0.0, 0.0, 1.769892762901291E9, 0.0, 2026-01-31 14:52:42.901
136.0, -70575.56606239869, -19011.14213599469, -10904.58910519947, -28944.793813800075, -63558.66057379968, -74753.33061854013, -75304.99402344156, -75485.59611864045, -64132.20633652286, -67071.95247077376, -10106.073034533625, -10731.430140904205, -64083.032498721186, -77604.00505113663, -61739.96618270472, -32979.551908916466, -0.164, 0.854, -0.374, 192.0, 0.0, 0.0, 0.0, 0.0, 0.0, 0.0, 0.0, 0.0, 0.0, 1.769892762910233E9, 0.0, 2026-01-31 14:52:42.910
138.0, -70542.150204438, -19133.316771187398, -11031.815234639078, -28908.181656382283, -63308.3433876447, -74806.14779068802, -75340.3321314254, -75640.06902457107, -63838.124434724385, -66780.4633713321, -10203.526640358763, -10758.296937739486, -63782.423887541765, -77678.16813923934, -61849.44502704681, -32977.42849319321, -0.164, 0.854, -0.374, 192.0, 0.0, 0.0, 0.0, 0.0, 0.0, 0.0, 0.0, 0.0, 0.0, 1.769892762917341E9, 0.0, 2026-01-31 14:52:42.917
140.0, -70562.51264363679, -19350.2180993817, -11185.751698702778, -28926.107755435438, -62980.08566857406, -74853.77935812228, -75339.77333781403, -75793.4913985123, -63553.743190019515, -66495.21040859347, -10317.028798702813, -10777.877065882334, -63501.19423880509, -77734.09220386652, -61965.85291217005, -32957.580144116895, -0.14900000000000002, 0.87, -0.36, 192.0, 125.5, 104.0, 13.5, 88.0, 122.5, 24.0, 0.0, 0.0, 0.0, 1.76989276292534E9, 0.0, 2026-01-31 14:52:42.925
142.0, -70577.2647949773, -19528.607371879505, -11326.031246904284, -28968.330200711516, -62670.514007868056, -74876.77930316678, -75334.61008484484, -76004.42481093702, -63227.00538957184, -66169.14316047945, -10439.181082151066, -10820.52419430306, -63172.28831914524, -77828.30480674563, -62078.7515734138, -32964.88916455378, -0.14900000000000002, 0.87, -0.36, 192.0, 0.0, 0.0, 0.0, 0.0, 0.0, 0.0, 0.0, 0.0, 0.0, 1.769892762933322E9, 0.0, 2026-01-31 14:52:42.933
144.0, -70604.39981274604, -19780.042145257252, -11486.852048260218, -29018.30870131358, -62287.22629394845, -74937.50899285186, -75336.532334868, -76257.8488895713, -62882.07326913754, -65825.12746156781, -10572.41983084915, -10863.10426749042, -62839.04616106107, -77900.14331342498, -62203.49665921887, -32987.88910959829, -0.14900000000000002, 0.87, -0.36, 192.0, 0.0, 0.0, 0.0, 0.0, 0.0, 0.0, 0.0, 0.0, 0.0, 1.769892762940358E9, 0.0, 2026-01-31 14:52:42.940
146.0, -70560.16571046898, -19974.27880457387, -11614.100529444282, -29035.340730588527, -61942.607097936525, -75015.09189785623, -75344.15427972726, -76525.68984337925, -62495.54455227192, -65440.18571855852, -10696.382605598284, -10916.97197162771, -62448.51648193795, -77997.57456750567, -62303.699529612015, -33025.618854238855, -0.14900000000000002, 0.87, -0.36, 192.0, 0.0, 0.0, 0.0, 0.0, 0.0, 0.0, 0.0, 0.0, 0.0, 1.769892762951459E9, 0.0, 2026-01-31 14:52:42.951
148.0, -70533.5447828227, -20202.490115462555, -11749.3732868878, -29061.492271601233, -61576.46317201414, -75113.7301461375, -75341.24855294808, -76799.29754725666, -62142.63285906707, -65090.000938177225, -10797.300731813995, -10945.02341091912, -62109.46287029539, -78065.05448401625, -62401.577818581805, -33054.54201156402, -0.14900000000000002, 0.87, -0.36, 192.0, 0.0, 0.0, 0.0, 0.0, 0.0, 0.0, 0.0, 0.0, 0.0, 1.769892762958349E9, 0.0, 2026-01-31 14:52:42.958
150.0, -70486.53906423319, -20390.781210754063, -11839.71903797615, -29075.104483974515, -61316.221811321004, -75189.03317320743, -75297.28267160448, -77015.66243358403, -61805.74736663668, -64756.78113183751, -10887.579427668981, -10985.144792216397, -61761.80383703755, -78169.37007538916, -62479.719517197555, -33084.02396250057, -0.11950000000000001, 0.881, -0.33599999999999997, 192.0, 126.5, 24.0, 13.5, 112.0, 123.0, 32.0, 0.0, 0.0, 0.0, 1.769892762965322E9, 0.0, 2026-01-31 14:52:42.965
152.0, -70476.07844782811, -20592.84098063004, -11916.184355757756, -29092.784713838664, -61067.692764722444, -75241.42566221066, -75244.08551980085, -77196.39863924964, -61567.45541899865, -64520.791413878374, -10954.567605801536, -11000.99217903521, -61526.03763652297, -78246.99768388244, -62545.05366624042, -33109.97433781318, -0.11950000000000001, 0.881, -0.33599999999999997, 192.0, 0.0, 0.0, 0.0, 0.0, 0.0, 0.0, 0.0, 0.0, 0.0, 1.769892762972329E9, 0.0, 2026-01-31 14:52:42.972
154.0, -70416.2204761768, -20778.82984624265, -11946.64978345034, -29114.33179549358, -60903.22862902029, -75261.65399094272, -75117.46288746153, -77338.89101015223, -61337.72418948701, -64294.859980924135, -11021.667542656367, -11047.506159246703, -61280.570778914785, -78377.77774069045, -62581.442306213656, -33157.18122210279, -0.11950000000000001, 0.881, -0.33599999999999997, 192.0, 0.0, 0.0, 0.0, 0.0, 0.0, 0.0, 0.0, 0.0, 0.0, 1.769892762981439E9, 0.0, 2026-01-31 14:52:42.981
156.0, -70349.67933293334, -20955.855662328682, -11967.995699405159, -29141.556220240145, -60745.134740487905, -75266.52667123398, -74968.48851066691, -77494.21328237216, -61211.146260636604, -64171.14307536401, -11061.677165231367, -11088.409851599914, -61154.77516112032, -78488.59768969986, -62584.75036439305, -33211.16068496236, -0.11950000000000001, 0.881, -0.33599999999999997, 192.0, 0.0, 0.0, 0.0, 0.0, 0.0, 0.0, 0.0, 0.0, 0.0, 1.769892762989448E9, 0.0, 2026-01-31 14:52:42.989
158.0, -70290.67072757134, -21130.04280686889, -11961.625452235396, -29167.10426415256, -60605.257523686596, -75282.32935456387, -74814.90967451449, -77664.60063035497, -61045.07279933367, -64005.226076272265, -11096.612941815012, -11163.154085058462, -60982.912598003466, -78647.25037184362, -62560.78929433695, -33287.134264365945, -0.11950000000000001, 0.881, -0.33599999999999997, 192.0, 0.0, 0.0, 0.0, 0.0, 0.0, 0.0, 0.0, 0.0, 0.0, 1.769892762996501E9, 0.0, 2026-01-31 14:52:42.996
160.0, -70236.66891296732, -21261.64987822174, -11963.301833069543, -29185.410342861458, -60409.47859400256, -75326.31758765192, -74766.96518265786, -77857.4738332598, -60907.65427442244, -63866.242929249165, -11111.968590255809, -11213.803137994188, -60853.60775632951, -78766.11694885694, -62528.78159627695, -33361.520869913205, -0.10675000000000001, 0.8995, -0.31999999999999995, 192.0, 126.5, 8.0, 14.0, 88.0, 123.0, 64.0, 0.0, 0.0, 0.0, 1.769892763005482E9, 0.0, 2026-01-31 14:52:43.005
162.0, -70186.10926700941, -21411.71949049467, -11968.46508603872, -29215.361680431568, -60174.67351849956, -75399.85482690988, -74815.31200591469, -78021.7144515174, -60661.58391971397, -63619.50202220703, -11147.887843595487, -11277.28209224726, -60609.75022432211, -78920.32163385411, -62494.963406916075, -33443.66353078646, -0.10675000000000001, 0.8995, -0.31999999999999995, 192.0, 0.0, 0.0, 0.0, 0.0, 0.0, 0.0, 0.0, 0.0, 0.0, 1.769892763013494E9, 0.0, 2026-01-31 14:52:43.013
164.0, -70121.06569064446, -21517.39853827936, -11993.677853784306, -29267.955335134906, -59933.72171327135, -75484.1209035064, -74924.92496072353, -78152.82978449223, -60451.07519043388, -63409.08269990477, -11172.653576451967, -11320.19744160145, -60396.291064773926, -79042.71978649138, -62456.13842679721, -33499.408781458, -0.10675000000000001, 0.8995, -0.31999999999999995, 192.0, 0.0, 0.0, 0.0, 0.0, 0.0, 0.0, 0.0, 0.0, 0.0, 1.769892763020571E9, 0.0, 2026-01-31 14:52:43.020
166.0, -70043.70630308465, -21684.61193854951, -12014.33086566101, -29347.61695237362, -59677.01192820215, -75601.62402410794, -74949.78010055782, -78327.86629532174, -60168.37032656316, -63129.06004536868, -11214.406635094481, -11404.195297264492, -60112.20039274698, -79204.05467796978, -62423.19195547009, -33562.06072116622, -0.10675000000000001, 0.8995, -0.31999999999999995, 192.0, 0.0, 0.0, 0.0, 0.0, 0.0, 0.0, 0.0, 0.0, 0.0, 1.769892763028481E9, 0.0, 2026-01-31 14:52:43.028
168.0, -69926.85138307231, -21793.80021021369, -12021.885755286903, -29409.844208937197, -59470.77238211303, -75696.1719031539, -74921.01340544384, -78558.29042891151, -59968.925710788455, -62932.43174939534, -11227.683571300933, -11477.598426055722, -59911.749948471785, -79338.70158656855, -62382.44472532806, -33634.6368354126, -0.10675000000000001, 0.8995, -0.31999999999999995, 192.0, 0.0, 0.0, 0.0, 0.0, 0.0, 0.0, 0.0, 0.0, 0.0, 1.769892763037554E9, 0.0, 2026-01-31 14:52:43.037
170.0, -69831.67765518161, -21973.240014700892, -12019.851746541472, -29472.96553527898, -59207.35707370724, -75790.83154092211, -74867.68214317347, -78821.54927510611, -59704.37046341544, -62668.479999122625, -11245.117931976072, -11568.033584121893, -59651.396829056364, -79502.33870772585, -62340.15522481862, -33734.146801727635, -0.109375, 0.90675, -0.31499999999999995, 192.0, 126.0, 64.0, 14.0, 72.0, 123.0, 40.0, 0.0, 0.0, 0.0, 1.769892763045557E9, 0.0, 2026-01-31 14:52:43.045
172.0, -69732.99470341143, -22090.698431813533, -12016.834261040005, -29521.468820747, -59024.78802499629, -75871.70015236142, -74767.68043848044, -79063.14928092352, -59496.36512951436, -62462.799246644885, -11254.080981502651, -11640.386180923722, -59439.8822712758, -79646.30629376249, -62284.65584333609, -33826.414802839136, -0.109375, 0.90675, -0.31499999999999995, 192.0, 0.0, 0.0, 0.0, 0.0, 0.0, 0.0, 0.0, 0.0, 0.0, 1.769892763057145E9, 0.0, 2026-01-31 14:52:43.057
174.0, -69665.26891771184, -22281.537625972942, -12020.835223297505, -29571.46967309352, -58816.134490505996, -75955.51919406882, -74653.50772780273, -79260.7610536529, -59286.34813861229, -62250.74824699739, -11279.472563203879, -11710.771824213485, -59235.56497520983, -79800.086295615, -62231.771615954836, -33913.13957132573, -0.109375, 0.90675, -0.31499999999999995, 192.0, 0.0, 0.0, 0.0, 0.0, 0.0, 0.0, 0.0, 0.0, 0.0, 1.769892763061488E9, 0.0, 2026-01-31 14:52:43.061
176.0, -69551.43148320097, -22380.24292948758, -12014.867307527937, -29598.470580395533, -58694.74216636922, -76015.06424129776, -74583.7479333577, -79399.20775880906, -59138.51370078489, -62104.23256209285, -11290.782545898264, -11757.039935235971, -59079.326281467234, -79931.46984952329, -62168.33736519067, -33977.04320872345, -0.109375, 0.90675, -0.31499999999999995, 192.0, 0.0, 0.0, 0.0, 0.0, 0.0, 0.0, 0.0, 0.0, 0.0, 1.769892763069522E9, 0.0, 2026-01-31 14:52:43.069
178.0, -69440.81269989166, -22564.51071077713, -12022.802176809571, -29637.67554017014, -58551.73570534417, -76110.34972791073, -74508.26609233214, -79521.76237365752, -58986.924169889, -61955.057019598135, -11308.753348440332, -11801.765775891039, -58924.04871273622, -80056.3490457951, -62107.47356503887, -34028.653386670754, -0.109375, 0.90675, -0.31499999999999995, 192.0, 0.0, 0.0, 0.0, 0.0, 0.0, 0.0, 0.0, 0.0, 0.0, 1.769892763076518E9, 0.0, 2026-01-31 14:52:43.076
180.0, -69281.48946541423, -22662.76897940266, -12017.661275584851, -29646.05744434088, -58490.357815069896, -76170.6770861956, -74434.30416992953, -79644.83107862844, -58885.80487797319, -61858.721000995756, -11317.00114214434, -11835.695723974195, -58829.56788892364, -80170.7229221729, -62036.1938519709, -34067.72423597863, -0.1016875, 0.907375, -0.3095, 192.0, 126.5, 8.0, 14.0, 48.0, 123.0, 64.0, 0.0, 0.0, 0.0, 1.769892763084552E9, 0.0, 2026-01-31 14:52:43.084
182.0, -69155.98442029768, -22846.545022314196, -12027.965429778747, -29675.271174343965, -58373.86052296883, -76215.80525825087, -74349.21107878818, -79808.26703408564, -58793.93920826188, -61768.50936037414, -11325.271287592805, -11856.438142828722, -58739.55741400211, -80264.13086225162, -61971.70906921734, -34097.00502121509, -0.1016875, 0.907375, -0.3095, 192.0, 0.0, 0.0, 0.0, 0.0, 0.0, 0.0, 0.0, 0.0, 0.0, 1.769892763093727E9, 0.0, 2026-01-31 14:52:43.093
184.0, -69011.99448251659, -22949.608915997615, -12017.482461629208, -29696.97471821007, -58338.38830451827, -76235.51949686045, -74234.61368496582, -79954.00040793425, -58711.28245726615, -61688.914798368794, -11329.205194616938, -11884.44487863122, -58652.98910772671, -80364.13256694467, -61899.91526602689, -34127.22457971866, -0.1016875, 0.907375, -0.3095, 192.0, 0.0, 0.0, 0.0, 0.0, 0.0, 0.0, 0.0, 0.0, 0.0, 1.76989276310061E9, 0.0, 2026-01-31 14:52:43.100
186.0, -68913.9150278467, -23126.210048938996, -12008.228839424712, -29727.663663347204, -58236.75492247998, -76281.87701486076, -74118.58577949832, -80086.4568455764, -58651.40213387038, -61629.280344162034, -11325.159528870527, -11907.713044609196, -58600.663673956835, -80448.24218132999, -61828.792015170104, -34158.7628911451, -0.1016875, 0.907375, -0.3095, 192.0, 0.0, 0.0, 0.0, 0.0, 0.0, 0.0, 0.0, 0.0, 0.0, 1.769892763108614E9, 0.0, 2026-01-31 14:52:43.108
188.0, -68795.9872241005, -23226.368215843228, -11973.181304118789, -29737.721948352093, -58192.07378531382, -76323.29479733644, -74014.09137416976, -80218.75682100735, -58561.88339732688, -61542.175596019704, -11319.81746194571, -11942.537062470563, -58504.50646931011, -80558.14570881674, -61749.44332235376, -34202.48290329968, -0.1016875, 0.907375, -0.3095, 192.0, 0.0, 0.0, 0.0, 0.0, 0.0, 0.0, 0.0, 0.0, 0.0, 1.769892763116684E9, 0.0, 2026-01-31 14:52:43.116
190.0, -68713.15165914914, -23382.897482263743, -11942.022972348092, -29754.30694273793, -58092.988502143446, -76377.34131542937, -73885.43473308501, -80365.38426463417, -58502.315998353486, -61482.92112146868, -11304.439461760458, -11964.039440636569, -58448.045962816, -80654.19115474119, -61669.49113243713, -34244.548886364566, -0.1016875, 0.907375, -0.3095, 192.0, 0.0, 0.0, 0.0, 0.0, 0.0, 0.0, 0.0, 0.0, 0.0, 1.769892763125653E9, 0.0, 2026-01-31 14:52:43.125
192.0, -68598.30839613777, -23471.70096298468, -11904.896724807826, -29760.31956199641, -58066.54638845282, -76421.8883421288, -73731.9006004215, -80486.64247830422, -58419.8380613134, -61402.566600151855, -11298.225676801881, -12001.813888766037, -58367.534979287986, -80783.49599641515, -61562.53803521849, -34289.81116888657, -0.078, 0.922, -0.302, 192.0, 126.5, 72.0, 14.0, 104.0, 123.0, 72.0, 0.0, 0.0, 0.0, 1.769892763132718E9, 0.0, 2026-01-31 14:52:43.132
194.0, -68497.99376702234, -23612.986339686675, -11914.418567945788, -29793.578957745907, -57979.106364143656, -76479.1982149122, -73595.68906971086, -80604.61498553932, -58386.042223696975, -61369.709535802554, -11306.5181739948, -12021.796348309083, -58335.23670855007, -80874.31113413705, -61471.78995272994, -34318.53316051164, -0.078, 0.922, -0.302, 192.0, 0.0, 0.0, 0.0, 0.0, 0.0, 0.0, 0.0, 0.0, 0.0, 1.769892763142745E9, 0.0, 2026-01-31 14:52:43.142
196.0, -68356.2837071757, -23711.93751239032, -11931.092969309446, -29828.313568629455, -57912.29699996675, -76529.89197133684, -73476.88954793091, -80743.64283605132, -58271.109553707785, -61257.21320595899, -11340.090494166672, -12067.282148275632, -58221.01929438345, -80991.94836520533, -61387.83680055581, -34353.29012313964, -0.078, 0.922, -0.302, 192.0, 0.0, 0.0, 0.0, 0.0, 0.0, 0.0, 0.0, 0.0, 0.0, 1.769892763149808E9, 0.0, 2026-01-31 14:52:43.149
198.0, -68196.06640292006, -23834.737996427775, -11966.721649971207, -29866.4009411813, -57806.707359159875, -76595.6284517799, -73374.04917169204, -80901.98259377273, -58209.77636692243, -61194.42715578403, -11364.811523534241, -12084.358881039487, -58170.169075747624, -81049.90643857795, -61316.780604932384, -34366.052969223616, -0.078, 0.922, -0.302, 192.0, 0.0, 0.0, 0.0, 0.0, 0.0, 0.0, 0.0, 0.0, 0.0, 1.769892763156789E9, 0.0, 2026-01-31 14:52:43.156
200.0, -68019.84524963443, -23928.749433606798, -11975.192961119767, -29914.099563848922, -57769.29053894169, -76652.40188269639, -73235.17778339122, -81042.50801116324, -58097.50355452342, -61083.160171885516, -11384.391651677091, -12105.369520827475, -58052.97887956845, -81126.28234938173, -61258.73312458195, -34376.737103073254, -0.078, 0.922, -0.302, 192.0, 0.0, 0.0, 0.0, 0.0, 0.0, 0.0, 0.0, 0.0, 0.0, 1.769892763164818E9, 0.0, 2026-01-31 14:52:43.164
202.0, -67861.88547156876, -24026.873591765594, -11978.948054188259, -30138.7122438803, -57783.997986793285, -76684.99072611221, -73001.08796371079, -81073.95691561185, -58122.64926703564, -61107.18829717497, -11359.983546731895, -12070.232578543733, -58078.75044092542, -81134.55249483019, -61205.06658614476, -34332.25713160719, -0.016, 0.934, -0.304, 192.0, 127.5, 64.0, 14.5, 24.0, 123.0, 64.0, 0.0, 0.0, 0.0, 1.769892763174731E9, 0.0, 2026-01-31 14:52:43.174
204.0, -67710.54180986188, -24150.903421748095, -11950.31546954101, -30851.017636182027, -57760.43924813739, -76723.07809866406, -72727.18968715545, -80979.58785052155, -58086.73001369596, -61070.57613975718, -11342.124502912106, -12042.605822396974, -58049.11202777768, -81172.30459121522, -61126.23198345089, -34275.26018324616, -0.016, 0.934, -0.304, 192.0, 0.0, 0.0, 0.0, 0.0, 0.0, 0.0, 0.0, 0.0, 0.0, 1.769892763180863E9, 0.0, 2026-01-31 14:52:43.180
206.0, -67586.3555176682, -24284.678612313106, -11917.771329614083, -31771.23895540702, -57692.31113103761, -76768.20627071933, -72430.42557602235, -80854.44043331628, -58064.08769656273, -61043.53052896626, -11295.074080833683, -11994.99660670717, -58023.0945972317, -81184.68745764345, -61009.48882216082, -34197.65492649734, -0.016, 0.934, -0.304, 192.0, 0.0, 0.0, 0.0, 0.0, 0.0, 0.0, 0.0, 0.0, 0.0, 1.769892763188904E9, 0.0, 2026-01-31 14:52:43.188
208.0, -67390.75540193981, -24450.617963149307, -11869.513913335075, -32725.971368071005, -57619.95853423578, -76812.41802125193, -72094.14358069225, -80782.95955454822, -57965.896483170574, -60937.06917012563, -11260.406525183502, -11991.241513638677, -57913.28047672278, -81269.66879006253, -60890.979873058786, -34162.696798169236, -0.016, 0.934, -0.304, 192.0, 0.0, 0.0, 0.0, 0.0, 0.0, 0.0, 0.0, 0.0, 0.0, 1.769892763196823E9, 0.0, 2026-01-31 14:52:43.196
210.0, -67173.07176268956, -24585.823665359458, -11784.823153593918, -33700.52977806685, -57468.01137542861, -76819.74939343326, -71757.90628885107, -80885.06232322006, -57900.45057540543, -60867.28702393616, -11206.248248368294, -11966.296966826554, -57841.19610085441, -81338.71332868497, -60731.05314148106, -34215.312804617024, -0.016, 0.934, -0.304, 192.0, 0.0, 0.0, 0.0, 0.0, 0.0, 0.0, 0.0, 0.0, 0.0, 1.769892763204885E9, 0.0, 2026-01-31 14:52:43.204
212.0, -66996.7164989372, -24779.0991996645, -11667.945881837117, -34647.59554238267, -57219.124700918765, -76873.14771093699, -71447.37350313348, -80987.58977503655, -57642.44438915782, -60610.24196270013, -11149.765390129733, -12027.00430476717, -57589.06842339855, -81524.70219429758, -60540.77274093303, -34331.94420718482, 0.022, 0.932, -0.324, 192.0, 0.0, 88.0, 14.5, 16.0, 122.5, 112.0, 0.0, 0.0, 0.0, 1.769892763213844E9, 0.0, 2026-01-31 14:52:43.213
214.0, -66844.03173256299, -24926.598361325072, -11521.609010888222, -35445.39635722594, -56984.76666030487, -76965.59452600415, -71154.45389204669, -81084.14931108349, -57439.89288090383, -60406.93049513466, -11061.498351275724, -12102.754366726205, -57379.20789470767, -81678.50454789455, -60337.483625112014, -34449.648493486464, 0.022, 0.932, -0.324, 192.0, 0.0, 0.0, 0.0, 0.0, 0.0, 0.0, 0.0, 0.0, 0.0, 1.769892763220969E9, 0.0, 2026-01-31 14:52:43.220
216.0, -66710.41300420917, -25142.270343574328, -11352.048677450262, -36149.96804594613, -56663.81796167111, -77068.3901987541, -70894.95013892057, -81331.67252918155, -57126.23085096251, -60090.20627620295, -10978.059289224064, -12211.473251756817, -57067.15519036713, -81904.01129770414, -60114.502622425876, -34633.53629512028, 0.022, 0.932, -0.324, 192.0, 0.0, 0.0, 0.0, 0.0, 0.0, 0.0, 0.0, 0.0, 0.0, 1.769892763230987E9, 0.0, 2026-01-31 14:52:43.230
218.0, -66558.62230761317, -25287.109647644716, -11156.269747766228, -36773.08997787118, -56406.839955668445, -77155.31613294079, -70691.79513356628, -81521.79646751839, -56868.47053390391, -59832.200089955346, -10862.567825623491, -12311.318494238674, -56795.42503302396, -82135.82123945013, -59860.005660057745, -34831.39393703866, 0.022, 0.932, -0.324, 192.0, 0.0, 0.0, 0.0, 0.0, 0.0, 0.0, 0.0, 0.0, 0.0, 1.769892763237054E9, 0.0, 2026-01-31 14:52:43.237
220.0, -66417.15811695554, -25498.847722869843, -10959.440286092793, -37388.74642714816, -56111.3945974582, -77298.92609106614, -70497.17849459393, -81611.89634941773, -56580.065975197074, -59540.800397491505, -10755.927652827222, -12430.497995674372, -56501.1866690143, -82406.99260318192, -59593.25994172811, -35047.8258785994, 0.022, 0.932, -0.324, 192.0, 0.0, 0.0, 0.0, 0.0, 0.0, 0.0, 0.0, 0.0, 0.0, 1.769892763246E9, 0.0, 2026-01-31 14:52:43.246
222.0, -66248.51420504025, -25620.68708189572, -10754.430085948718, -37962.91803871609, -55897.51075476537, -77416.0715837564, -70268.96718370524, -81690.10510326685, -56354.67098410976, -59314.3995779037, -10643.923061361678, -12544.871872052177, -56265.01813709953, -82660.99782717203, -59303.536630098424, -35244.83415422847, -0.028, 0.936, -0.35000000000000003, 192.0, 127.5, 16.0, 14.5, 32.0, 122.5, 8.0, 0.0, 0.0, 0.0, 1.769892763252977E9, 0.0, 2026-01-31 14:52:43.252
224.0, -66089.48154324073, -25818.20944764727, -10573.939749472112, -38526.629033878926, -55627.16640557843, -77553.69127436772, -70123.18910636772, -81772.96301996267, -56100.73281535302, -59057.2874614343, -10553.75612422897, -12672.74620208099, -56019.953610891534, -82918.46757155271, -59017.27783885931, -35439.3166827341, -0.028, 0.936, -0.35000000000000003, 192.0, 0.0, 0.0, 0.0, 0.0, 0.0, 0.0, 0.0, 0.0, 0.0, 1.769892763261119E9, 0.0, 2026-01-31 14:52:43.261
226.0, -65865.15943588727, -25922.726204720286, -10395.05873859629, -39032.65017660263, -55440.10465623196, -77658.0292174851, -70056.91618405774, -81787.64811606982, -55878.958806867464, -58835.9381360934, -10455.07317245879, -12793.624436095291, -55792.52461105879, -83152.69150169987, -58722.23481204925, -35614.53200751925, -0.028, 0.936, -0.35000000000000003, 192.0, 0.0, 0.0, 0.0, 0.0, 0.0, 0.0, 0.0, 0.0, 0.0, 1.769892763268073E9, 0.0, 2026-01-31 14:52:43.268
228.0, -65647.83342454833, -26111.21846571189, -10240.719943132395, -39537.55373210356, -55208.33941797489, -77780.74029454474, -69992.1184768818, -81760.55780178998, -55667.24308338679, -58622.99306666769, -10365.57678765974, -12909.138251440318, -55582.17234398989, -83376.32070497522, -58440.356962723374, -35777.945611232, -0.028, 0.936, -0.35000000000000003, 192.0, 0.0, 0.0, 0.0, 0.0, 0.0, 0.0, 0.0, 0.0, 0.0, 1.769892763277006E9, 0.0, 2026-01-31 14:52:43.277
230.0, -65388.732002822406, -26213.634158806108, -10072.366603895021, -40011.5448250228, -55054.76058182247, -77872.62831600051, -69916.5025253895, -81759.70843550068, -55477.52147645014, -58434.43375044272, -10268.436106256975, -13021.522822561601, -55383.24181833766, -83608.35416416576, -58165.11758150072, -35943.30381671236, -0.028, 0.936, -0.35000000000000003, 192.0, 0.0, 0.0, 0.0, 0.0, 0.0, 0.0, 0.0, 0.0, 0.0, 1.769892763285111E9, 0.0, 2026-01-31 14:52:43.285
232.0, -65124.17675544939, -26380.26641372042, -9908.684779248808, -40470.8508218349, -54864.167256852066, -77963.24228802232, -69812.2763409944, -81834.1173927924, -55309.32459942396, -58265.20869317159, -10167.562683530174, -13121.770396443653, -55209.4793569421, -83818.32645157892, -57901.724624839386, -36105.37631575779, -0.076, 0.912, -0.37, 192.0, 126.5, 80.0, 14.0, 64.0, 122.0, 56.0, 0.0, 0.0, 0.0, 1.769892763293063E9, 0.0, 2026-01-31 14:52:43.293
234.0, -64834.78871998653, -26458.18459489162, -9735.056428319982, -40882.12291981255, -54778.26950291032, -78029.78343126577, -69685.72076388846, -81904.8830157379, -55156.170446416196, -58114.78145298737, -10056.809789754128, -13224.90134536044, -55062.360174937276, -84032.38910822739, -57639.896290289915, -36270.868631704885, -0.076, 0.912, -0.37, 192.0, 0.0, 0.0, 0.0, 0.0, 0.0, 0.0, 0.0, 0.0, 0.0, 1.769892763300191E9, 0.0, 2026-01-31 14:52:43.300
236.0, -64579.12946690673, -26595.536064569482, -9584.47272592458, -41286.48832875351, -54627.26111737027, -78144.67139776604, -69524.43057589896, -81979.73900791872, -55056.392259167704, -58013.997437238395, -9954.505855382187, -13308.25100043428, -54966.51589471292, -84211.85126445905, -57391.88133381383, -36425.520351591156, -0.076, 0.912, -0.37, 192.0, 0.0, 0.0, 0.0, 0.0, 0.0, 0.0, 0.0, 0.0, 0.0, 1.769892763309174E9, 0.0, 2026-01-31 14:52:43.309
238.0, -64305.901742685055, -26662.1442630463, -9414.845337253253, -41657.303769267055, -54563.55864567264, -78244.60604722572, -69323.62250371248, -82056.24902918923, -54930.10490299522, -57888.04535723274, -9855.509979189632, -13396.74155673284, -54834.61825068215, -84412.41346745653, -57141.89942382568, -36585.93882154689, -0.076, 0.912, -0.37, 192.0, 0.0, 0.0, 0.0, 0.0, 0.0, 0.0, 0.0, 0.0, 0.0, 1.769892763316184E9, 0.0, 2026-01-31 14:52:43.316
240.0, -64069.73321077028, -26783.804808116533, -9256.572634765225, -42028.76741036981, -54472.385880039445, -78351.08975781081, -69126.10013796094, -82094.53756744118, -54874.73963197943, -57830.55667049369, -9749.093323837915, -13451.659792859531, -54780.23645642239, -84567.78044316536, -56899.87473486361, -36727.581826160174, -0.076, 0.912, -0.37, 192.0, 0.0, 0.0, 0.0, 0.0, 0.0, 0.0, 0.0, 0.0, 0.0, 1.769892763324197E9, 0.0, 2026-01-31 14:52:43.324
242.0, -63798.561847038494, -26845.11564315744, -9080.910275090966, -42368.71509179057, -54483.427641800365, -78412.9593864631, -68920.39703373874, -82105.04288733518, -54810.92540155952, -57767.39064066299, -9643.883662686785, -13519.027950647825, -54702.944124095935, -84751.4000238657, -56658.11826683501, -36870.63299067414, -0.092, 0.905, -0.376, 192.0, 126.0, 80.0, 14.0, 8.0, 122.0, 8.0, 0.0, 0.0, 0.0, 1.769892763332248E9, 0.0, 2026-01-31 14:52:43.332
244.0, -63526.07173038385, -26954.259211332705, -8926.303258693608, -42720.44214253928, -54456.650251942905, -78469.1740237682, -68702.35576657722, -82141.87856219753, -54834.77471289333, -57790.904675829974, -9537.489359079524, -13558.009392977881, -54732.806054688226, -84877.66502829373, -56425.436607055264, -36980.53651816089, -0.092, 0.905, -0.376, 192.0, 0.0, 0.0, 0.0, 0.0, 0.0, 0.0, 0.0, 0.0, 0.0, 1.769892763341243E9, 0.0, 2026-01-31 14:52:43.341
246.0, -63207.78288934027, -27031.48448842579, -8753.88190196537, -43058.355815214614, -54477.37031905298, -78512.7375737116, -68452.73148450036, -82155.55782980417, -54797.02261650832, -57756.55004460216, -9439.745180576467, -13626.22691705548, -54692.796432113224, -85043.17969598528, -56198.655807811716, -37099.58190912985, -0.092, 0.905, -0.376, 192.0, 0.0, 0.0, 0.0, 0.0, 0.0, 0.0, 0.0, 0.0, 0.0, 1.769892763348195E9, 0.0, 2026-01-31 14:52:43.348
248.0, -62883.99551916069, -27116.46582084487, -8591.541181986473, -43382.25494411647, -54536.53538662617, -78570.36037091738, -68129.0335212986, -82121.7396404433, -54865.01662314137, -57829.640248971016, -9335.317830481272, -13671.332737366289, -54752.69910725345, -85158.87232528595, -55986.78362211986, -37204.8809772588, -0.092, 0.905, -0.376, 192.0, 0.0, 0.0, 0.0, 0.0, 0.0, 0.0, 0.0, 0.0, 0.0, 1.769892763356276E9, 0.0, 2026-01-31 14:52:43.356
250.0, -62554.32964018937, -27177.62019367459, -8423.90309857167, -43692.31834320049, -54649.92578624795, -78650.62548525637, -67781.6427089742, -82105.48992222428, -54932.72005709649, -57901.18818297246, -9233.572689720713, -13737.471549209542, -54820.00020980838, -85311.87001608254, -55773.100945127124, -37326.27330139557, -0.092, 0.905, -0.376, 192.0, 0.0, 0.0, 0.0, 0.0, 0.0, 0.0, 0.0, 0.0, 0.0, 1.769892763365288E9, 0.0, 2026-01-31 14:52:43.365
252.0, -62245.60734577267, -27222.39073781857, -8272.335919420233, -43979.15827979545, -54707.25801077581, -78757.82445166403, -67467.60069937714, -82123.99716663327, -55046.758657307466, -58018.110158218165, -9126.351371568606, -13776.654157239695, -54946.98047005898, -85409.43538062995, -55569.85653279502, -37432.22057011373, -0.108, 0.8985000000000001, -0.385, 192.0, 126.0, 16.0, 13.5, 112.0, 121.5, 88.0, 0.0, 0.0, 0.0, 1.769892763372372E9, 0.0, 2026-01-31 14:52:43.372
254.0, -61944.97638284879, -27269.262345941348, -8116.9912954558495, -44235.86806486465, -54775.94492148697, -78859.99427556923, -67201.48082989226, -82059.37827341298, -55059.2979859469, -58031.43179791353, -9028.271916898719, -13840.066056259402, -54956.54701668585, -85550.89957128759, -55381.38662354787, -37549.88015292647, -0.108, 0.8985000000000001, -0.385, 192.0, 0.0, 0.0, 0.0, 0.0, 0.0, 0.0, 0.0, 0.0, 0.0, 1.769892763380331E9, 0.0, 2026-01-31 14:52:43.380
0.0, -61679.95174884221, -27292.73167761942, -7988.446413093378, -44472.88596306872, -54864.97191965245, -78902.50729352323, -66948.77200708057, -82020.7097555053, -55173.82832453589, -58148.24201443697, -8919.731845823748, -13856.159312267222, -55074.94420706561, -85631.56701702678, -55202.30444697195, -37630.525246921214, -0.108, 0.8985000000000001, -0.385, 192.0, 0.0, 0.0, 0.0, 0.0, 0.0, 0.0, 0.0, 0.0, 0.0, 1.769892763388386E9, 0.0, 2026-01-31 14:52:43.388
2.0, -61465.97849917156, -27348.991018413428, -7875.41364138289, -44718.553986377, -54956.34585098575, -78929.23997989178, -66590.58530218426, -82020.57564503857, -55228.8359676404, -58204.12137557523, -8846.507530988161, -13897.487687765086, -55135.15980662821, -85755.48508828701, -55043.070619472346, -37715.57363457366, -0.108, 0.8985000000000001, -0.385, 192.0, 0.0, 0.0, 0.0, 0.0, 0.0, 0.0, 0.0, 0.0, 0.0, 1.76989276339632E9, 0.0, 2026-01-31 14:52:43.396
4.0, -61258.487255392945, -27358.401102829113, -7765.487762151691, -44949.335747878045, -55077.872285589256, -78932.21276190433, -66193.12658227999, -82008.37159256596, -55374.92696940029, -58353.319269814405, -8770.802172518037, -13908.507097781552, -55277.47336357515, -85820.86394081879, -54884.68615826204, -37771.609457923114, -0.108, 0.8985000000000001, -0.385, 192.0, 0.0, 0.0, 0.0, 0.0, 0.0, 0.0, 0.0, 0.0, 0.0, 1.769892763404423E9, 0.0, 2026-01-31 14:52:43.404
6.0, -61034.83570037314, -27412.51467615541, -7665.441353969736, -45172.83084068666, -55132.254079849015, -78942.20399167585, -65894.7531455461, -82034.54548532313, -55428.034714226094, -58407.3881396518, -8715.123977079866, -13945.789807533003, -55341.53346318406, -85920.75388678955, -54749.569863029705, -37847.40422337106, -0.11399999999999999, 0.9152500000000001, -0.3845, 192.0, 126.0, 32.0, 14.5, 16.0, 122.0, 0.0, 0.0, 0.0, 0.0, 1.769892763412516E9, 0.0, 2026-01-31 14:52:43.412
8.0, -60805.90913366189, -27405.205655718524, -7584.25981810806, -45355.17637195306, -55247.09734286038, -78917.84059021957, -65633.61771507475, -82020.2627206162, -55528.438750319336, -58511.14493741333, -8650.683897815215, -13947.823816278436, -55437.35539166396, -85962.26107624306, -54632.84905348409, -37896.71217163947, -0.11399999999999999, 0.9152500000000001, -0.3845, 192.0, 0.0, 0.0, 0.0, 0.0, 0.0, 0.0, 0.0, 0.0, 0.0, 1.769892763421439E9, 0.0, 2026-01-31 14:52:43.421
10.0, -60559.27998534203, -27466.851766926262, -7521.853747588843, -45550.68708070363, -55333.68800088025, -78924.4790583228, -65353.95268844994, -81966.596182179, -55603.71942564481, -58590.33716801849, -8612.484766541096, -13952.920014014247, -55527.79054973013, -86011.52432102256, -54533.65201159144, -37932.69848021251, -0.11399999999999999, 0.9152500000000001, -0.3845, 192.0, 0.0, 0.0, 0.0, 0.0, 0.0, 0.0, 0.0, 0.0, 0.0, 1.76989276342741E9, 0.0, 2026-01-31 14:52:43.427
12.0, -60293.65185423516, -27471.791502450884, -7470.936473719654, -45748.79059181101, -55451.951080793275, -78934.60439856106, -65103.41198485041, -81892.00841093164, -55725.98346781534, -58718.92675386986, -8566.082545051879, -13939.799540018981, -55650.501626789766, -86028.91397820879, -54435.21492901027, -37941.75093671691, -0.11399999999999999, 0.9152500000000001, -0.3845, 192.0, 0.0, 0.0, 0.0, 0.0, 0.0, 0.0, 0.0, 0.0, 0.0, 1.769892763436467E9, 0.0, 2026-01-31 14:52:43.436
