%OpenBCI Raw EXG Data
%Number of channels = 16
%Sample Rate = 125 Hz
%Board = OpenBCI_GUI$BoardCytonSerialDaisy
Sample Index, EXG Channel 0, EXG Channel 1, EXG Channel 2, EXG Channel 3, EXG Channel 4, EXG Channel 5, EXG Channel 6, EXG Channel 7, EXG Channel 8, EXG Channel 9, EXG Channel 10, EXG Channel 11, EXG Channel 12, EXG Channel 13, EXG Channel 14, EXG Channel 15, Accel Channel 0, Accel Channel 1, Accel Channel 2, Not Used, Digital Channel 0 (D11), Digital Channel 1 (D12), Digital Channel 2 (D13), Digital Channel 3 (D17), Not Used, Digital Channel 4 (D18), Analog Channel 0, Analog Channel 1, Analog Channel 2, Timestamp, Marker Channel, Timestamp (Formatted)
0.0, -187500.02235174447, -57276.09929753534, -187500.02235174447, -187500.02235174447, -32370.73509344281, 6938.964955683346, -106125.1439005308, -10604.315770186875, -42692.100130569954, -93750.01117587223, -93750.01117587223, -89246.67110999479, -69029.540601914, -6554.336137096422, 2169.6614825322013, -93750.01117587223, -0.024, 0.466, 0.156, 192.0, 127.5, 32.0, 7.0, 72.0, 2.0, 112.0, 0.0, 0.0, 0.0, 1.770498139295074E9, 0.0, 2026-02-07 15:02:19.295
2.0, -187500.02235174447, -57276.14400102425, -187500.02235174447, -187500.02235174447, -32371.293887054195, 6938.160292882954, -106130.26245001107, -10612.541212146427, -85336.9933768503, -187500.02235174447, -187500.02235174447, -178483.28393498468, -138049.9393403458, -13115.31074229607, 4339.948813909151, -187500.02235174447, -0.024, 0.466, 0.156, 192.0, 0.0, 0.0, 0.0, 0.0, 0.0, 0.0, 0.0, 0.0, 0.0, 1.770498139303072E9, 0.0, 2026-02-07 15:02:19.303
4.0, -187500.02235174447, -57274.91465507921, -187500.02235174447, -187500.02235174447, -32370.623334720534, 6935.701600992871, -106131.62590642285, -10619.872584327768, -85269.24523940626, -187500.02235174447, -187500.02235174447, -178464.26260045322, -138033.68962212678, -13116.987123130219, 4337.087790618872, -187500.02235174447, -0.024, 0.466, 0.156, 192.0, 0.0, 0.0, 0.0, 0.0, 0.0, 0.0, 0.0, 0.0, 0.0, 1.770498139310143E9, 0.0, 2026-02-07 15:02:19.310
6.0, -187500.02235174447, -57279.742631881556, -187500.02235174447, -187500.02235174447, -32378.491148768804, 6940.283708606209, -106141.21480479417, -10632.903651345212, -85208.9178811214, -187500.02235174447, -187500.02235174447, -178450.8739055245, -138019.51861614213, -13123.625591233444, 4338.294784819458, -187500.02235174447, -0.029, 0.5830000000000001, 0.193, 192.0, 127.0, 120.0, 10.5, 112.0, 3.5, 24.0, 0.0, 0.0, 0.0, 1.770498139318148E9, 0.0, 2026-02-07 15:02:19.318
8.0, -187500.02235174447, -57277.14982952474, -187500.02235174447, -187500.02235174447, -32380.88278542552, 6939.344935339086, -106145.43928449623, -10638.849215370325, -85150.37866239293, -187500.02235174447, -187500.02235174447, -178438.69220479636, -138010.60027010445, -13133.169786115861, 4341.535787765478, -187500.02235174447, -0.029, 0.5830000000000001, 0.193, 192.0, 0.0, 0.0, 0.0, 0.0, 0.0, 0.0, 0.0, 0.0, 0.0, 1.77049813932619E9, 0.0, 2026-02-07 15:02:19.326
10.0, -187500.02235174447, -57273.305329478426, -187500.02235174447, -187500.02235174447, -32383.564994760156, 6937.534444038206, -106150.64724095432, -10645.934718362656, -85093.76169368764, -187500.02235174447, -187500.02235174447, -178422.68835576635, -137996.80924377553, -13137.528376284645, 4338.3841917972795, -187500.02235174447, -0.029, 0.5830000000000001, 0.193, 192.0, 0.0, 0.0, 0.0, 0.0, 0.0, 0.0, 0.0, 0.0, 0.0, 1.770498139334245E9, 0.0, 2026-02-07 15:02:19.334
12.0, -187500.02235174447, -57272.321852722394, -187500.02235174447, -187500.02235174447, -32390.22581460784, 6940.5519295396725, -106159.69969745871, -10656.574148723383, -85047.20300998724, -187500.02235174447, -187500.02235174447, -178411.57953877206, -137987.68973203775, -13144.435065321335, 4339.837055186875, -187500.02235174447, -0.029, 0.5830000000000001, 0.193, 192.0, 0.0, 0.0, 0.0, 0.0, 0.0, 0.0, 0.0, 0.0, 0.0, 1.770498139342247E9, 0.0, 2026-02-07 15:02:19.342
14.0, -187500.02235174447, -57268.63381488727, -187500.02235174447, -187500.02235174447, -32395.03143966573, 6940.529577795217, -106166.33816556195, -10664.643128471747, -84999.03500068605, -187500.02235174447, -187500.02235174447, -178402.34826831202, -137982.45942383521, -13155.32036487107, 4342.09458137686, -187500.02235174447, -0.029, 0.5830000000000001, 0.193, 192.0, 0.0, 0.0, 0.0, 0.0, 0.0, 0.0, 0.0, 0.0, 0.0, 1.770498139349305E9, 0.0, 2026-02-07 15:02:19.349
16.0, -187500.02235174447, -57261.99534678404, -187500.02235174447, -187500.02235174447, -32397.624242022546, 6939.233176616809, -106171.36730806438, -10669.471105274095, -84953.77271816407, -187500.02235174447, -187500.02235174447, -178387.39495127142, -137974.99394118716, -13159.6566032954, 4340.887587176274, -187500.02235174447, -0.0395, 0.6995, 0.2305, 192.0, 127.0, 56.0, 12.5, 64.0, 4.0, 48.0, 0.0, 0.0, 0.0, 1.770498139358402E9, 0.0, 2026-02-07 15:02:19.358
18.0, -187500.02235174447, -57258.553178137925, -187500.02235174447, -187500.02235174447, -32402.474570569346, 6938.920252194435, -106177.35757557841, -10679.64114900126, -84912.31023219947, -187500.02235174447, -187500.02235174447, -178371.68167491935, -137967.3049410945, -13161.958832974296, 4339.390020297768, -187500.02235174447, -0.0395, 0.6995, 0.2305, 192.0, 0.0, 0.0, 0.0, 0.0, 0.0, 0.0, 0.0, 0.0, 0.0, 1.770498139366844E9, 0.0, 2026-02-07 15:02:19.366
20.0, -187500.02235174447, -57257.72616359308, -187500.02235174447, -187500.02235174447, -32408.84481773911, 6940.350763839575, -106183.48195355917, -10690.839372973369, -84882.1353771848, -187500.02235174447, -187500.02235174447, -178358.91882883536, -137964.77919397107, -13161.51179808519, 4341.28991857647, -187500.02235174447, -0.0395, 0.6995, 0.2305, 192.0, 0.0, 0.0, 0.0, 0.0, 0.0, 0.0, 0.0, 0.0, 0.0, 1.770498139373377E9, 0.0, 2026-02-07 15:02:19.373
22.0, -187500.02235174447, -57256.80974207041, -187500.02235174447, -187500.02235174447, -32413.873960241555, 6938.048534160678, -106189.53927630655, -10697.634303287781, -84852.34050182588, -187500.02235174447, -187500.02235174447, -178344.5466571506, -137962.18639161426, -13145.418542077368, 4341.0887528763715, -187500.02235174447, -0.0395, 0.6995, 0.2305, 192.0, 0.0, 0.0, 0.0, 0.0, 0.0, 0.0, 0.0, 0.0, 0.0, 1.770498139381393E9, 0.0, 2026-02-07 15:02:19.381
24.0, -187500.02235174447, -57258.88845430475, -187500.02235174447, -187500.02235174447, -32418.970157977365, 6936.170987626432, -106193.98727345315, -10702.752852768046, -84820.0645828324, -187500.02235174447, -187500.02235174447, -178327.87225578693, -137958.52070552358, -13121.368065043458, 4338.317136563914, -187500.02235174447, -0.0395, 0.6995, 0.2305, 192.0, 0.0, 0.0, 0.0, 0.0, 0.0, 0.0, 0.0, 0.0, 0.0, 1.770498139390413E9, 0.0, 2026-02-07 15:02:19.390
26.0, -187500.02235174447, -57273.12651552278, -187500.02235174447, -187500.02235174447, -32426.726213303355, 6937.333278338108, -106201.47510784569, -10713.191117428674, -84792.84015808585, -187500.02235174447, -187500.02235174447, -178314.95294749178, -137955.88319967786, -13105.699492180287, 4337.467770274612, -187500.02235174447, -0.04775, 0.7847500000000001, 0.26125, 192.0, 127.0, 32.0, 13.5, 24.0, 4.5, 16.0, 0.0, 0.0, 0.0, 1.770498139397496E9, 0.0, 2026-02-07 15:02:19.397
28.0, -187500.02235174447, -57286.8728383628, -187500.02235174447, -187500.02235174447, -32433.18586745094, 6937.981478927312, -106209.07470096048, -10722.60120184436, -84772.16479446468, -187500.02235174447, -187500.02235174447, -178306.54869157658, -137958.23013284567, -13103.933704368319, 4339.188854597671, -187500.02235174447, -0.04775, 0.7847500000000001, 0.26125, 192.0, 0.0, 0.0, 0.0, 0.0, 0.0, 0.0, 0.0, 0.0, 0.0, 1.770498139405462E9, 0.0, 2026-02-07 15:02:19.405
30.0, -187500.02235174447, -57303.68135019319, -187500.02235174447, -187500.02235174447, -32441.90304778851, 6939.769618483737, -106217.52366036459, -10732.54772812697, -84751.78000352145, -187500.02235174447, -187500.02235174447, -178297.89856647237, -137961.42643230277, -13109.611047459966, 4340.306441820436, -187500.02235174447, -0.04775, 0.7847500000000001, 0.26125, 192.0, 0.0, 0.0, 0.0, 0.0, 0.0, 0.0, 0.0, 0.0, 0.0, 1.770498139413496E9, 0.0, 2026-02-07 15:02:19.413
32.0, -187500.02235174447, -57319.19346084517, -187500.02235174447, -187500.02235174447, -32452.296608960227, 6942.451827818374, -106226.15143372434, -10741.9354607982, -84743.71102377308, -187500.02235174447, -187500.02235174447, -178292.24357512518, -137970.03185391807, -13115.556611485079, 4342.899244177252, -187500.02235174447, -0.04775, 0.7847500000000001, 0.26125, 192.0, 0.0, 0.0, 0.0, 0.0, 0.0, 0.0, 0.0, 0.0, 0.0, 1.77049813942244E9, 0.0, 2026-02-07 15:02:19.422
34.0, -187500.02235174447, -57330.50344353956, -187500.02235174447, -187500.02235174447, -32458.018655540785, 6940.909557450957, -106230.7782448266, -10746.584623644903, -84738.57012254836, -187500.02235174447, -187500.02235174447, -178286.05214191106, -137977.74320575513, -13112.427367261334, 4344.866197689319, -187500.02235174447, -0.04775, 0.7847500000000001, 0.26125, 192.0, 0.0, 0.0, 0.0, 0.0, 0.0, 0.0, 0.0, 0.0, 0.0, 1.770498139434908E9, 0.0, 2026-02-07 15:02:19.434
36.0, -187500.02235174447, -57339.220623877125, -187500.02235174447, -187500.02235174447, -32465.506489933312, 6940.730743495315, -106237.61787862991, -10752.574891158925, -84733.250407368, -187500.02235174447, -187500.02235174447, -178276.99968540666, -137981.7218162682, -13099.753928155176, 4342.876892432796, -187500.02235174447, -0.04775, 0.7847500000000001, 0.26125, 192.0, 0.0, 0.0, 0.0, 0.0, 0.0, 0.0, 0.0, 0.0, 0.0, 1.770498139437501E9, 0.0, 2026-02-07 15:02:19.437
38.0, -187500.02235174447, -57343.7356762571, -187500.02235174447, -187500.02235174447, -32468.591030668147, 6938.294403349687, -106241.9317653098, -10755.74883887158, -84727.77422997645, -187500.02235174447, -187500.02235174447, -178269.62360973642, -137984.78400525858, -13089.047442561085, 4343.525093022, -187500.02235174447, -0.052000000000000005, 0.9, 0.3, 192.0, 127.0, 48.0, 14.0, 16.0, 4.5, 48.0, 0.0, 0.0, 0.0, 1.770498139446564E9, 0.0, 2026-02-07 15:02:19.446
40.0, -187500.02235174447, -57344.674449524224, -187500.02235174447, -187500.02235174447, -32471.362646980604, 6935.411028314952, -106245.41863744482, -10757.492274939093, -84712.12800885773, -187500.02235174447, -187500.02235174447, -178257.44190900825, -137982.0794441795, -13078.810343600553, 4339.0323923864835, -187500.02235174447, -0.052000000000000005, 0.9, 0.3, 192.0, 0.0, 0.0, 0.0, 0.0, 0.0, 0.0, 0.0, 0.0, 0.0, 1.770498139453518E9, 0.0, 2026-02-07 15:02:19.453
42.0, -187500.02235174447, -57350.552958315966, -187500.02235174447, -187500.02235174447, -32476.123568549585, 6932.75117072477, -106249.17373051331, -10759.168655773241, -84690.26800278045, -187500.02235174447, -187500.02235174447, -178248.21063854822, -137981.78887150157, -13080.06204129005, 4337.959508652629, -187500.02235174447, -0.052000000000000005, 0.9, 0.3, 192.0, 0.0, 0.0, 0.0, 0.0, 0.0, 0.0, 0.0, 0.0, 0.0, 1.770498139461614E9, 0.0, 2026-02-07 15:02:19.461
44.0, -187500.02235174447, -57362.66760381075, -187500.02235174447, -187500.02235174447, -32482.851443630632, 6932.32648758012, -106255.78984687208, -10762.36495523035, -84668.20683100306, -187500.02235174447, -187500.02235174447, -178241.28159776708, -137983.24173489114, -13087.527523938123, 4336.23842432957, -187500.02235174447, -0.052000000000000005, 0.9, 0.3, 192.0, 0.0, 0.0, 0.0, 0.0, 0.0, 0.0, 0.0, 0.0, 0.0, 1.770498139469644E9, 0.0, 2026-02-07 15:02:19.469
46.0, -187500.02235174447, -57384.035871510016, -187500.02235174447, -187500.02235174447, -32490.249871045336, 6933.377019569519, -106262.89770160886, -10767.103525054876, -84647.93379878209, -187500.02235174447, -187500.02235174447, -178236.85595236492, -137987.80149076003, -13094.836544375008, 4336.99838364105, -187500.02235174447, -0.052000000000000005, 0.9, 0.3, 192.0, 0.0, 0.0, 0.0, 0.0, 0.0, 0.0, 0.0, 0.0, 0.0, 1.77049813947768E9, 0.0, 2026-02-07 15:02:19.477
48.0, -187500.02235174447, -57404.35360721989, -187500.02235174447, -187500.02235174447, -32489.892243134054, 6928.504339278262, -106263.6353091759, -10767.483504710615, -84629.71712705102, -187500.02235174447, -187500.02235174447, -178234.5090191971, -137992.78592977356, -13099.93274211082, 4336.573700496399, -187500.02235174447, -0.05, 0.918, 0.302, 192.0, 127.0, 56.0, 14.0, 88.0, 4.5, 56.0, 0.0, 0.0, 0.0, 1.770498139485636E9, 0.0, 2026-02-07 15:02:19.485
50.0, -187500.02235174447, -57437.34478203592, -187500.02235174447, -187500.02235174447, -32497.96122288242, 6932.594708513583, -106272.5313034691, -10777.407679248772, -84619.16710366811, -187500.02235174447, -187500.02235174447, -178229.4575249502, -137996.09398795295, -13102.391434000903, 4334.9196714067075, -187500.02235174447, -0.05, 0.918, 0.302, 192.0, 0.0, 0.0, 0.0, 0.0, 0.0, 0.0, 0.0, 0.0, 0.0, 1.77049813949372E9, 0.0, 2026-02-07 15:02:19.493
52.0, -187500.02235174447, -57463.63043351537, -187500.02235174447, -187500.02235174447, -32500.889301406063, 6931.544176524184, -106276.12993432641, -10782.168600817753, -84624.95620548204, -187500.02235174447, -187500.02235174447, -178231.08920229546, -138007.89570902535, -13113.053216106084, 4338.898281919752, -187500.02235174447, -0.05, 0.918, 0.302, 192.0, 0.0, 0.0, 0.0, 0.0, 0.0, 0.0, 0.0, 0.0, 0.0, 1.770498139501751E9, 0.0, 2026-02-07 15:02:19.501
54.0, -187500.02235174447, -57487.41268961581, -187500.02235174447, -187500.02235174447, -32501.671612462, 6931.231252101809, -106278.47686749422, -10784.94021713021, -84622.38575486968, -187500.02235174447, -187500.02235174447, -178222.52848416907, -138011.04730499355, -13118.574096986546, 4336.707810963132, -187500.02235174447, -0.05, 0.918, 0.302, 192.0, 0.0, 0.0, 0.0, 0.0, 0.0, 0.0, 0.0, 0.0, 0.0, 1.770498139508757E9, 0.0, 2026-02-07 15:02:19.508
56.0, -187500.02235174447, -57512.111367238926, -187500.02235174447, -187500.02235174447, -32504.063249118717, 6933.175853869421, -106283.50600999666, -10790.952836388688, -84618.36244086773, -187500.02235174447, -187500.02235174447, -178218.28165272257, -138014.42241840632, -13134.063855894072, 4338.630060986288, -187500.02235174447, -0.05, 0.918, 0.302, 192.0, 0.0, 0.0, 0.0, 0.0, 0.0, 0.0, 0.0, 0.0, 0.0, 1.770498139517866E9, 0.0, 2026-02-07 15:02:19.517
58.0, -187500.02235174447, -57534.21724250523, -187500.02235174447, -187500.02235174447, -32502.968013640406, 6933.533481780706, -106286.41173677584, -10794.529115501538, -84606.69483026204, -187500.02235174447, -187500.02235174447, -178212.67136486428, -138012.85779629444, -13149.665373523876, 4340.887587176274, -187500.02235174447, -0.054, 0.924, 0.306, 192.0, 127.0, 40.0, 14.0, 112.0, 4.5, 72.0, 0.0, 0.0, 0.0, 1.770498139525802E9, 0.0, 2026-02-07 15:02:19.525
60.0, -187500.02235174447, -57555.809027649055, -187500.02235174447, -187500.02235174447, -32501.693964206454, 6932.1029701355665, -106288.13282109892, -10796.56312424697, -84592.9708591665, -187500.02235174447, -187500.02235174447, -178206.79285607254, -138006.75577005814, -13161.780019018654, 4340.775828453998, -187500.02235174447, -0.054, 0.924, 0.306, 192.0, 0.0, 0.0, 0.0, 0.0, 0.0, 0.0, 0.0, 0.0, 0.0, 1.770498139533834E9, 0.0, 2026-02-07 15:02:19.533
62.0, -187500.02235174447, -57574.24921682468, -187500.02235174447, -187500.02235174447, -32498.363554282616, 6931.2759555907205, -106289.07159436603, -10797.837173680922, -84576.69878920303, -187500.02235174447, -187500.02235174447, -178198.1650827128, -137997.9268309983, -13166.809161521098, 4338.563005752922, -187500.02235174447, -0.054, 0.924, 0.306, 192.0, 0.0, 0.0, 0.0, 0.0, 0.0, 0.0, 0.0, 0.0, 0.0, 1.770498139540965E9, 0.0, 2026-02-07 15:02:19.540
64.0, -187500.02235174447, -57593.38231007842, -187500.02235174447, -187500.02235174447, -32500.375211283594, 6934.472255047829, -106295.46419328025, -10805.794394707013, -84568.60745771021, -187500.02235174447, -187500.02235174447, -178194.05236173302, -137993.83646176296, -13173.045298224128, 4341.133456365283, -187500.02235174447, -0.054, 0.924, 0.306, 192.0, 0.0, 0.0, 0.0, 0.0, 0.0, 0.0, 0.0, 0.0, 0.0, 1.770498139550004E9, 0.0, 2026-02-07 15:02:19.550
66.0, -187500.02235174447, -57601.76421424916, -187500.02235174447, -187500.02235174447, -32497.849464160143, 6932.795874213681, -106298.10169912598, -10807.157851118785, -84560.09144307274, -187500.02235174447, -187500.02235174447, -178186.0057337291, -137989.6790372943, -13174.855789525009, 4341.33462206538, -187500.02235174447, -0.054, 0.924, 0.306, 192.0, 0.0, 0.0, 0.0, 0.0, 0.0, 0.0, 0.0, 0.0, 0.0, 1.770498139557021E9, 0.0, 2026-02-07 15:02:19.557
68.0, -187500.02235174447, -57607.41920559636, -187500.02235174447, -187500.02235174447, -32497.268318804305, 6931.097141635078, -106302.34853057249, -10808.700121486203, -84552.04481506883, -187500.02235174447, -187500.02235174447, -178177.1097394359, -137986.84036574845, -13176.353356403513, 4341.33462206538, -187500.02235174447, -0.054, 0.936, 0.316, 192.0, 127.0, 40.0, 14.5, 32.0, 4.5, 112.0, 0.0, 0.0, 0.0, 1.770498139565041E9, 0.0, 2026-02-07 15:02:19.565
70.0, -187500.02235174447, -57606.45808058478, -187500.02235174447, -187500.02235174447, -32495.70369669243, 6929.957202667857, -106304.9413329293, -10809.258915097585, -84542.67943414205, -187500.02235174447, -187500.02235174447, -178162.96108519568, -137982.19120290174, -13176.487466870245, 4338.026563885995, -187500.02235174447, -0.054, 0.936, 0.316, 192.0, 0.0, 0.0, 0.0, 0.0, 0.0, 0.0, 0.0, 0.0, 0.0, 1.770498139573025E9, 0.0, 2026-02-07 15:02:19.573
72.0, -187500.02235174447, -57609.699083530795, -187500.02235174447, -187500.02235174447, -32498.363554282616, 6934.22638585882, -106312.36211208846, -10817.082025656942, -84540.33250097424, -187500.02235174447, -187500.02235174447, -178153.66275950227, -137983.28643838008, -13183.930597773862, 4342.09458137686, -187500.02235174447, -0.054, 0.936, 0.316, 192.0, 0.0, 0.0, 0.0, 0.0, 0.0, 0.0, 0.0, 0.0, 0.0, 1.770498139581982E9, 0.0, 2026-02-07 15:02:19.581
74.0, -187500.02235174447, -57604.35701660598, -187500.02235174447, -187500.02235174447, -32493.826150158187, 6933.756999225259, -106312.87620221093, -10818.646647768814, -84535.61628289417, -187500.02235174447, -187500.02235174447, -178140.16230585126, -137979.19606914473, -13186.232827452759, 4343.279223832992, -187500.02235174447, -0.054, 0.936, 0.316, 192.0, 0.0, 0.0, 0.0, 0.0, 0.0, 0.0, 0.0, 0.0, 0.0, 1.770498139589145E9, 0.0, 2026-02-07 15:02:19.589
76.0, -187500.02235174447, -57598.90319095888, -187500.02235174447, -187500.02235174447, -32489.244042544848, 6932.5723567691275, -106313.52440280013, -10820.9041739588, -84526.09443975621, -187500.02235174447, -187500.02235174447, -178122.7950004095, -137968.69074925076, -13185.539923374645, 4342.519264521511, -187500.02235174447, -0.054, 0.936, 0.316, 192.0, 0.0, 0.0, 0.0, 0.0, 0.0, 0.0, 0.0, 0.0, 0.0, 1.770498139597113E9, 0.0, 2026-02-07 15:02:19.597
78.0, -187500.02235174447, -57591.28124609962, -187500.02235174447, -187500.02235174447, -32487.23238554387, 6933.153502124966, -106315.44665282329, -10821.842947225923, -84515.56676811776, -187500.02235174447, -187500.02235174447, -178105.6959159012, -137956.86667643389, -13185.025833252173, 4342.832188943886, -187500.02235174447, -0.051000000000000004, 0.928, 0.313, 192.0, 127.0, 64.0, 14.0, 96.0, 4.5, 88.0, 0.0, 0.0, 0.0, 1.77049813960613E9, 0.0, 2026-02-07 15:02:19.606
80.0, -187500.02235174447, -57586.29680708609, -187500.02235174447, -187500.02235174447, -32485.19837679844, 6933.80170271417, -106317.59242029101, -10824.122825160364, -84494.17614867403, -187500.02235174447, -187500.02235174447, -178086.92045055874, -137943.81325767198, -13181.807182050608, 4342.832188943886, -187500.02235174447, -0.051000000000000004, 0.928, 0.313, 192.0, 0.0, 0.0, 0.0, 0.0, 0.0, 0.0, 0.0, 0.0, 0.0, 1.770498139613201E9, 0.0, 2026-02-07 15:02:19.613
82.0, -187500.02235174447, -57575.366804047444, -187500.02235174447, -187500.02235174447, -32478.112873806105, 6929.2866503341975, -106315.42430107883, -10822.692313515225, -84464.64949424857, -187500.02235174447, -187500.02235174447, -178067.8320607939, -137928.8599406314, -13178.02973723766, 4341.401677298746, -187500.02235174447, -0.051000000000000004, 0.928, 0.313, 192.0, 0.0, 0.0, 0.0, 0.0, 0.0, 0.0, 0.0, 0.0, 0.0, 1.770498139621215E9, 0.0, 2026-02-07 15:02:19.621
84.0, -187500.02235174447, -57572.59518773499, -187500.02235174447, -187500.02235174447, -32475.94475459394, 6929.0854846341, -106318.71000751377, -10827.632049039847, -84435.59222645668, -187500.02235174447, -187500.02235174447, -178046.95553147263, -137913.88427184633, -13170.899530756418, 4337.780694696987, -187500.02235174447, -0.051000000000000004, 0.928, 0.313, 192.0, 0.0, 0.0, 0.0, 0.0, 0.0, 0.0, 0.0, 0.0, 0.0, 1.770498139629271E9, 0.0, 2026-02-07 15:02:19.629
86.0, -187500.02235174447, -57571.70111795678, -187500.02235174447, -187500.02235174447, -32478.559908695213, 6931.901804435469, -106322.71096977127, -10836.796264266522, -84415.49800819135, -187500.02235174447, -187500.02235174447, -178034.79618248896, -137908.810425855, -13170.765420289687, 4340.015869142517, -187500.02235174447, -0.051000000000000004, 0.928, 0.313, 192.0, 0.0, 0.0, 0.0, 0.0, 0.0, 0.0, 0.0, 0.0, 0.0, 1.770498139637301E9, 0.0, 2026-02-07 15:02:19.637
88.0, -187500.02235174447, -57569.10831559996, -187500.02235174447, -187500.02235174447, -32479.968068595896, 6931.9241561799245, -106323.47092908274, -10841.467778857683, -84395.98493528187, -187500.02235174447, -187500.02235174447, -178021.09456313786, -137906.307030476, -13171.6594900679, 4341.647546487755, -187500.02235174447, -0.053500000000000006, 0.93, 0.3135, 192.0, 127.0, 32.0, 14.5, 16.0, 4.5, 104.0, 0.0, 0.0, 0.0, 1.770498139644418E9, 0.0, 2026-02-07 15:02:19.644
90.0, -187500.02235174447, -57564.325042286524, -187500.02235174447, -187500.02235174447, -32484.57252795369, 6933.868757947535, -106328.81299600757, -10847.882729516356, -84384.3173246762, -187500.02235174447, -187500.02235174447, -178007.75057169804, -137907.58107990993, -13174.162885446893, 4342.899244177252, -187500.02235174447, -0.053500000000000006, 0.93, 0.3135, 192.0, 0.0, 0.0, 0.0, 0.0, 0.0, 0.0, 0.0, 0.0, 0.0, 1.770498139653412E9, 0.0, 2026-02-07 15:02:19.653
92.0, -187500.02235174447, -57548.76822814563, -187500.02235174447, -187500.02235174447, -32485.399542498537, 6933.019391658234, -106331.71872278675, -10852.62129934088, -84366.92766748997, -187500.02235174447, -187500.02235174447, -177990.5620802119, -137906.6423066428, -13173.246463924226, 4343.0780581328945, -187500.02235174447, -0.053500000000000006, 0.93, 0.3135, 192.0, 0.0, 0.0, 0.0, 0.0, 0.0, 0.0, 0.0, 0.0, 0.0, 1.770498139661438E9, 0.0, 2026-02-07 15:02:19.661
94.0, -187500.02235174447, -57523.778977844595, -187500.02235174447, -187500.02235174447, -32486.09244657665, 6930.583051512605, -106333.93154548784, -10855.594081353436, -84346.654635269, -187500.02235174447, -187500.02235174447, -177970.17728926867, -137905.0553327865, -13170.139571444937, 4341.535787765478, -187500.02235174447, -0.053500000000000006, 0.93, 0.3135, 192.0, 0.0, 0.0, 0.0, 0.0, 0.0, 0.0, 0.0, 0.0, 0.0, 1.770498139668439E9, 0.0, 2026-02-07 15:02:19.668
96.0, -187500.02235174447, -57501.15901245583, -187500.02235174447, -187500.02235174447, -32492.127417579584, 6933.42172305843, -106339.0053914792, -10861.159665722807, -84324.07937336915, -187500.02235174447, -187500.02235174447, -177947.75848957998, -137905.61412639788, -13164.998670220217, 4341.312270320925, -187500.02235174447, -0.053500000000000006, 0.93, 0.3135, 192.0, 0.0, 0.0, 0.0, 0.0, 0.0, 0.0, 0.0, 0.0, 0.0, 1.770498139677394E9, 0.0, 2026-02-07 15:02:19.677
98.0, -187500.02235174447, -57472.258206875114, -187500.02235174447, -187500.02235174447, -32495.413124014514, 6931.633583502005, -106341.86641476947, -10861.67375584528, -84303.4487132369, -187500.02235174447, -187500.02235174447, -177928.33482364833, -137912.34200147892, -13160.438914351334, 4344.106238377838, -187500.02235174447, -0.053750000000000006, 0.931, 0.31375, 192.0, 127.0, 40.0, 14.5, 16.0, 4.5, 104.0, 0.0, 0.0, 0.0, 1.770498139685414E9, 0.0, 2026-02-07 15:02:19.685
100.0, -187500.02235174447, -57446.665459473785, -187500.02235174447, -187500.02235174447, -32496.977746126384, 6931.007734657256, -106345.12976945995, -10860.846741300433, -84273.45267217788, -187500.02235174447, -187500.02235174447, -177898.9869831785, -137912.18553926772, -13142.17753913135, 4339.658241231232, -187500.02235174447, -0.053750000000000006, 0.931, 0.31375, 192.0, 0.0, 0.0, 0.0, 0.0, 0.0, 0.0, 0.0, 0.0, 0.0, 1.770498139692471E9, 0.0, 2026-02-07 15:02:19.692
102.0, -187500.02235174447, -57424.447825485215, -187500.02235174447, -187500.02235174447, -32497.603594971133, 6930.828920701614, -106347.09672297201, -10861.561997123003, -84248.01638698774, -187500.02235174447, -187500.02235174447, -177877.55166024587, -137917.63936491482, -13130.17465235885, 4341.871063932307, -187500.02235174447, -0.053750000000000006, 0.931, 0.31375, 192.0, 0.0, 0.0, 0.0, 0.0, 0.0, 0.0, 0.0, 0.0, 0.0, 1.770498139700568E9, 0.0, 2026-02-07 15:02:19.700
104.0, -187500.02235174447, -57399.95031356219, -187500.02235174447, -187500.02235174447, -32494.7202199364, 6929.174891611921, -106346.0014874937, -10860.131485477863, -84210.9795464253, -187500.02235174447, -187500.02235174447, -177849.32140699882, -137913.3478299794, -13111.510945738668, 4338.8535784308415, -187500.02235174447, -0.053750000000000006, 0.931, 0.31375, 192.0, 0.0, 0.0, 0.0, 0.0, 0.0, 0.0, 0.0, 0.0, 0.0, 1.770498139709497E9, 0.0, 2026-02-07 15:02:19.709
106.0, -187500.02235174447, -57377.57621736243, -187500.02235174447, -187500.02235174447, -32495.368420525603, 6930.247775345776, -106349.84598754001, -10863.618357612891, -84177.74250242025, -187500.02235174447, -187500.02235174447, -177825.3156334538, -137909.92801307773, -13101.07268107804, 4339.121799364305, -187500.02235174447, -0.053750000000000006, 0.931, 0.31375, 192.0, 0.0, 0.0, 0.0, 0.0, 0.0, 0.0, 0.0, 0.0, 0.0, 1.77049813971766E9, 0.0, 2026-02-07 15:02:19.717
108.0, -187500.02235174447, -57349.25655713756, -187500.02235174447, -187500.02235174447, -32492.48504549087, 6928.504339278262, -106349.68952532882, -10862.47841864567, -84139.09633625703, -187500.02235174447, -187500.02235174447, -177798.89587150764, -137903.6918763747, -13094.814192630552, 4338.473598775101, -187500.02235174447, -0.052875000000000005, 0.9325000000000001, 0.314875, 192.0, 127.0, 48.0, 14.5, 24.0, 4.5, 112.0, 0.0, 0.0, 0.0, 1.770498139724574E9, 0.0, 2026-02-07 15:02:19.724
110.0, -187500.02235174447, -57321.56274575744, -187500.02235174447, -187500.02235174447, -32494.80962691422, 6931.141845123988, -106355.41157190938, -10866.524084392082, -84102.30536488359, -187500.02235174447, -187500.02235174447, -177772.6549235171, -137901.1884809957, -13092.199038529283, 4338.563005752922, -187500.02235174447, -0.052875000000000005, 0.9325000000000001, 0.314875, 192.0, 0.0, 0.0, 0.0, 0.0, 0.0, 0.0, 0.0, 0.0, 0.0, 1.770498139732595E9, 0.0, 2026-02-07 15:02:19.732
112.0, -187500.02235174447, -57275.76402136851, -187500.02235174447, -187500.02235174447, -32494.250833302838, 6932.237080602298, -106357.8032085661, -10865.652366358325, -84065.5367452546, -187500.02235174447, -187500.02235174447, -177744.37996678115, -137904.51889091957, -13087.39341347139, 4340.999345898551, -187500.02235174447, -0.052875000000000005, 0.9325000000000001, 0.314875, 192.0, 0.0, 0.0, 0.0, 0.0, 0.0, 0.0, 0.0, 0.0, 0.0, 1.770498139741618E9, 0.0, 2026-02-07 15:02:19.741
114.0, -187500.02235174447, -57211.10042465931, -187500.02235174447, -187500.02235174447, -32492.015658857308, 6931.208900357355, -106357.98202252174, -10864.266558202096, -84019.60391039896, -187500.02235174447, -187500.02235174447, -177705.3538209622, -137903.75893160808, -13072.037765030595, 4340.4405522871675, -187500.02235174447, -0.052875000000000005, 0.9325000000000001, 0.314875, 192.0, 0.0, 0.0, 0.0, 0.0, 0.0, 0.0, 0.0, 0.0, 0.0, 1.77049813974864E9, 0.0, 2026-02-07 15:02:19.748
116.0, -187500.02235174447, -57159.78081938992, -187500.02235174447, -187500.02235174447, -32492.172121068495, 6931.9241561799245, -106359.36783067798, -10865.33944193595, -83977.94025873426, -187500.02235174447, -187500.02235174447, -177663.84663150867, -137906.32938222043, -13053.06113398804, 4338.495950519557, -187500.02235174447, -0.052875000000000005, 0.9325000000000001, 0.314875, 192.0, 0.0, 0.0, 0.0, 0.0, 0.0, 0.0, 0.0, 0.0, 0.0, 1.77049813975671E9, 0.0, 2026-02-07 15:02:19.756
118.0, -187500.02235174447, -57119.30181018136, -187500.02235174447, -187500.02235174447, -32491.63567920157, 6930.627755001517, -106360.03838301163, -10863.841875057446, -83945.48552578516, -187500.02235174447, -187500.02235174447, -177632.688299738, -137913.39253346832, -13039.761846037132, 4339.077095875394, -187500.02235174447, -0.0494375, 0.93225, 0.31543750000000004, 192.0, 127.0, 72.0, 14.5, 16.0, 4.5, 112.0, 0.0, 0.0, 0.0, 1.770498139765743E9, 0.0, 2026-02-07 15:02:19.765
120.0, -187500.02235174447, -57074.64302475966, -187500.02235174447, -187500.02235174447, -32490.920423378997, 6931.521824779728, -106358.51846438868, -10862.970157023688, -83919.51279872809, -187500.02235174447, -187500.02235174447, -177600.27827027778, -137917.4605509592, -13025.032046441085, 4338.317136563914, -187500.02235174447, -0.0494375, 0.93225, 0.31543750000000004, 192.0, 0.0, 0.0, 0.0, 0.0, 0.0, 0.0, 0.0, 0.0, 0.0, 1.770498139772797E9, 0.0, 2026-02-07 15:02:19.772
122.0, -187500.02235174447, -57031.63826842765, -187500.02235174447, -187500.02235174447, -32486.80770239922, 6930.739513723793, -106355.45627539829, -10861.271424445084, -83895.26115599409, -187500.02235174447, -187500.02235174447, -177565.49895590532, -137920.5674434385, -13011.33042708998, 4338.741819708564, -187500.02235174447, -0.0494375, 0.93225, 0.31543750000000004, 192.0, 0.0, 0.0, 0.0, 0.0, 0.0, 0.0, 0.0, 0.0, 0.0, 1.770498139780819E9, 0.0, 2026-02-07 15:02:19.780
124.0, -187500.02235174447, -56990.98044526344, -187500.02235174447, -187500.02235174447, -32480.035123829264, 6929.130188123011, -106351.18709220733, -10856.510502876105, -83864.81808004595, -187500.02235174447, -187500.02235174447, -177528.66328104297, -137918.13110329284, -12996.6676827273, 4335.903148162741, -187500.02235174447, -0.0494375, 0.93225, 0.31543750000000004, 192.0, 0.0, 0.0, 0.0, 0.0, 0.0, 0.0, 0.0, 0.0, 0.0, 1.770498139788837E9, 0.0, 2026-02-07 15:02:19.788
126.0, -187500.02235174447, -56961.163218160065, -187500.02235174447, -187500.02235174447, -32476.972934838886, 6930.292478834686, -106350.69535382932, -10856.264633687095, -83837.01250994355, -187500.02235174447, -187500.02235174447, -177495.4485887824, -137915.38183872483, -12987.592874478445, 4335.456113273634, -187500.02235174447, -0.0494375, 0.93225, 0.31543750000000004, 192.0, 0.0, 0.0, 0.0, 0.0, 0.0, 0.0, 0.0, 0.0, 0.0, 1.770498139797911E9, 0.0, 2026-02-07 15:02:19.797
128.0, -187500.02235174447, -56939.10204638267, -187500.02235174447, -187500.02235174447, -32474.76011213781, 6932.929984680412, -106351.87999628544, -10857.270462187584, -83825.21078887115, -187500.02235174447, -187500.02235174447, -177468.24651578028, -137917.7064201482, -12985.134182588361, 4338.183026097182, -187500.02235174447, -0.0494375, 0.93225, 0.31543750000000004, 192.0, 0.0, 0.0, 0.0, 0.0, 0.0, 0.0, 0.0, 0.0, 0.0, 1.7704981398039E9, 0.0, 2026-02-07 15:02:19.803
130.0, -187500.02235174447, -56925.087502609196, -187500.02235174447, -187500.02235174447, -32471.250888258328, 6931.588880013094, -106351.65647884089, -10858.589215110447, -83820.15929462425, -187500.02235174447, -187500.02235174447, -177442.1396782565, -137920.07570506044, -12980.440316252747, 4338.272433075003, -187500.02235174447, -0.042, 0.928, 0.316, 192.0, 127.0, 88.0, 14.5, 0.0, 4.5, 112.0, 0.0, 0.0, 0.0, 1.77049813981294E9, 0.0, 2026-02-07 15:02:19.812
132.0, -187500.02235174447, -56915.76682517133, -187500.02235174447, -187500.02235174447, -32469.61921091309, 6930.650106745971, -106352.59525210802, -10863.037212257053, -83825.50136154908, -187500.02235174447, -187500.02235174447, -177419.78793380118, -137929.08345807594, -12975.634691194857, 4337.624232485799, -187500.02235174447, -0.042, 0.928, 0.316, 192.0, 0.0, 0.0, 0.0, 0.0, 0.0, 0.0, 0.0, 0.0, 0.0, 1.770498139820949E9, 0.0, 2026-02-07 15:02:19.820
134.0, -187500.02235174447, -56911.721159424924, -187500.02235174447, -187500.02235174447, -32468.032237056763, 6929.733685223304, -106353.08699048603, -10864.445372157737, -83832.1845331412, -187500.02235174447, -187500.02235174447, -177398.19614865736, -137937.15243782432, -12969.532664958557, 4335.813741184919, -187500.02235174447, -0.042, 0.928, 0.316, 192.0, 0.0, 0.0, 0.0, 0.0, 0.0, 0.0, 0.0, 0.0, 0.0, 1.770498139828007E9, 0.0, 2026-02-07 15:02:19.828
136.0, -187500.02235174447, -56909.50833672385, -187500.02235174447, -187500.02235174447, -32468.56867892369, 6929.599574756572, -106356.1044759875, -10868.312223948506, -83847.38371937082, -187500.02235174447, -187500.02235174447, -177382.12524439397, -137953.64802523234, -12968.37037424688, 4336.90897666323, -187500.02235174447, -0.042, 0.928, 0.316, 192.0, 0.0, 0.0, 0.0, 0.0, 0.0, 0.0, 0.0, 0.0, 0.0, 1.770498139837011E9, 0.0, 2026-02-07 15:02:19.837
138.0, -187500.02235174447, -56907.6307901896, -187500.02235174447, -187500.02235174447, -32468.43456845696, 6927.789083455692, -106357.46793239928, -10875.53183740757, -83853.4410421182, -187500.02235174447, -187500.02235174447, -177364.53442150765, -137965.78502247157, -12963.005955577608, 4335.5678719959105, -187500.02235174447, -0.042, 0.928, 0.316, 192.0, 0.0, 0.0, 0.0, 0.0, 0.0, 0.0, 0.0, 0.0, 0.0, 1.770498139845113E9, 0.0, 2026-02-07 15:02:19.845
140.0, -187500.02235174447, -56903.45101397646, -187500.02235174447, -187500.02235174447, -32470.200356268928, 6926.336220066098, -106361.46889465678, -10882.05854678852, -83859.3419026544, -187500.02235174447, -187500.02235174447, -177348.73173817777, -137978.05613017752, -12957.239205508138, 4333.757380695031, -187500.02235174447, -0.046, 0.932, 0.324, 192.0, 127.0, 72.0, 14.5, 16.0, 5.0, 16.0, 0.0, 0.0, 0.0, 1.770498139852156E9, 0.0, 2026-02-07 15:02:19.852
142.0, -187500.02235174447, -56899.628865674604, -187500.02235174447, -187500.02235174447, -32473.57546968168, 6927.65497298896, -106368.08501101554, -10890.999244570643, -83863.90165852329, -187500.02235174447, -187500.02235174447, -177334.82895312656, -137989.4331681053, -12954.601699662411, 4335.120837106805, -187500.02235174447, -0.046, 0.932, 0.324, 192.0, 0.0, 0.0, 0.0, 0.0, 0.0, 0.0, 0.0, 0.0, 0.0, 1.770498139860067E9, 0.0, 2026-02-07 15:02:19.860
144.0, -187500.02235174447, -56889.145897525064, -187500.02235174447, -187500.02235174447, -32474.178966781972, 6925.665667732438, -106372.48830467324, -10897.257733018128, -83860.23597243261, -187500.02235174447, -187500.02235174447, -177320.72500237526, -137994.9316972413, -12954.46758919568, 4334.9196714067075, -187500.02235174447, -0.046, 0.932, 0.324, 192.0, 0.0, 0.0, 0.0, 0.0, 0.0, 0.0, 0.0, 0.0, 0.0, 1.770498139869133E9, 0.0, 2026-02-07 15:02:19.869
146.0, -187500.02235174447, -56878.93115030899, -187500.02235174447, -187500.02235174447, -32475.453016215924, 6924.279859576209, -106376.73513611975, -10905.237305788673, -83850.51296359456, -187500.02235174447, -187500.02235174447, -177303.2459382112, -137996.00458097513, -12953.305298484005, 4333.019773128006, -187500.02235174447, -0.046, 0.932, 0.324, 192.0, 0.0, 0.0, 0.0, 0.0, 0.0, 0.0, 0.0, 0.0, 0.0, 1.770498139877183E9, 0.0, 2026-02-07 15:02:19.877
148.0, -187500.02235174447, -56868.381126926084, -187500.02235174447, -187500.02235174447, -32481.040952329753, 6925.598612499072, -106385.49701994623, -10917.128433838896, -83845.28265539202, -187500.02235174447, -187500.02235174447, -177287.7561793037, -137998.44092112075, -12955.763990374087, 4333.66797371721, -187500.02235174447, -0.046, 0.932, 0.324, 192.0, 0.0, 0.0, 0.0, 0.0, 0.0, 0.0, 0.0, 0.0, 0.0, 1.770498139884176E9, 0.0, 2026-02-07 15:02:19.884
150.0, -187500.02235174447, -56855.14889420854, -187500.02235174447, -187500.02235174447, -32485.80187389873, 6926.336220066098, -106392.98485433875, -10926.806739188045, -83841.12523092332, -187500.02235174447, -187500.02235174447, -177270.1877081618, -138002.48658686716, -12955.875749096365, 4335.299651062447, -187500.02235174447, -0.038, 0.932, 0.322, 192.0, 127.0, 104.0, 14.5, 16.0, 5.0, 8.0, 0.0, 0.0, 0.0, 1.770498139892181E9, 0.0, 2026-02-07 15:02:19.892
152.0, -187500.02235174447, -56845.805865026225, -187500.02235174447, -187500.02235174447, -32494.742571680854, 6928.929022422913, -106403.6689881884, -10935.568623014526, -83847.40607111527, -187500.02235174447, -187500.02235174447, -177252.59688527547, -138010.84613929346, -12952.56769091698, 4337.020735385506, -187500.02235174447, -0.038, 0.932, 0.322, 192.0, 0.0, 0.0, 0.0, 0.0, 0.0, 0.0, 0.0, 0.0, 0.0, 1.77049813990125E9, 0.0, 2026-02-07 15:02:19.901
154.0, -187500.02235174447, -56839.12269343409, -187500.02235174447, -187500.02235174447, -32500.889301406063, 6930.091313134589, -106411.31328479211, -10940.59776551697, -83855.89973400829, -187500.02235174447, -187500.02235174447, -177235.1848763448, -138021.01618302063, -12948.142045514829, 4339.501779020045, -187500.02235174447, -0.038, 0.932, 0.322, 192.0, 0.0, 0.0, 0.0, 0.0, 0.0, 0.0, 0.0, 0.0, 0.0, 1.770498139908235E9, 0.0, 2026-02-07 15:02:19.908
156.0, -187500.02235174447, -56835.389952110054, -187500.02235174447, -187500.02235174447, -32502.655089218035, 6928.057304389156, -106416.85651741702, -10942.274146351117, -83864.66161783476, -187500.02235174447, -187500.02235174447, -177218.55517847004, -138025.7771045896, -12943.6046413904, 4339.725296464598, -187500.02235174447, -0.038, 0.932, 0.322, 192.0, 0.0, 0.0, 0.0, 0.0, 0.0, 0.0, 0.0, 0.0, 0.0, 1.770498139917367E9, 0.0, 2026-02-07 15:02:19.917
158.0, -187500.02235174447, -56833.60181255363, -187500.02235174447, -187500.02235174447, -32501.649260717546, 6925.509205521251, -106419.58343024057, -10943.034105662598, -83870.87540279335, -187500.02235174447, -187500.02235174447, -177198.99740207166, -138023.58663363298, -12933.255783707595, 4336.730162707587, -187500.02235174447, -0.038, 0.932, 0.322, 192.0, 0.0, 0.0, 0.0, 0.0, 0.0, 0.0, 0.0, 0.0, 0.0, 1.770498139924385E9, 0.0, 2026-02-07 15:02:19.924
160.0, -187500.02235174447, -56840.68731554596, -187500.02235174447, -187500.02235174447, -32505.516112508314, 6927.118531122033, -106427.13831986647, -10951.728934255712, -83878.20677497468, -187500.02235174447, -187500.02235174447, -177184.08878851996, -138024.10072375546, -12927.936068527231, 4336.350183051847, -187500.02235174447, -0.032, 0.93, 0.326, 192.0, 127.5, 0.0, 14.5, 8.0, 5.0, 24.0, 0.0, 0.0, 0.0, 1.770498139933416E9, 0.0, 2026-02-07 15:02:19.933
162.0, -187500.02235174447, -56846.02938247078, -187500.02235174447, -187500.02235174447, -32506.85721717563, 6926.492682277284, -106431.09457863505, -10959.239120392695, -83888.68974312423, -187500.02235174447, -187500.02235174447, -177173.69522734825, -138030.35921220295, -12928.51721388307, 4338.920633664207, -187500.02235174447, -0.032, 0.93, 0.326, 192.0, 0.0, 0.0, 0.0, 0.0, 0.0, 0.0, 0.0, 0.0, 0.0, 1.770498139940327E9, 0.0, 2026-02-07 15:02:19.940
164.0, -187500.02235174447, -56849.24803367234, -187500.02235174447, -187500.02235174447, -32504.71144970792, 6921.150615352466, -106433.30740133613, -10965.899940240377, -83892.06485653698, -187500.02235174447, -187500.02235174447, -177159.1665934523, -138029.91217731385, -12925.052693492496, 4335.322002806903, -187500.02235174447, -0.032, 0.93, 0.326, 192.0, 0.0, 0.0, 0.0, 0.0, 0.0, 0.0, 0.0, 0.0, 0.0, 1.770498139948386E9, 0.0, 2026-02-07 15:02:19.948
166.0, -187500.02235174447, -56854.92537676399, -187500.02235174447, -187500.02235174447, -32503.593862485155, 6917.663743217438, -106437.0177909157, -10972.828981021523, -83891.93074607024, -187500.02235174447, -187500.02235174447, -177144.4144421118, -138027.00645053465, -12922.37048415786, 4330.672839960199, -187500.02235174447, -0.032, 0.93, 0.326, 192.0, 0.0, 0.0, 0.0, 0.0, 0.0, 0.0, 0.0, 0.0, 0.0, 1.770498139957485E9, 0.0, 2026-02-07 15:02:19.957
168.0, -187500.02235174447, -56872.650310117046, -187500.02235174447, -187500.02235174447, -32510.209978843926, 6919.921269407424, -106448.5289393102, -10991.671501597346, -83898.7480281291, -187500.02235174447, -187500.02235174447, -177137.41834609729, -138026.29119471207, -12929.120710983361, 4331.969241138607, -187500.02235174447, -0.032, 0.93, 0.326, 192.0, 0.0, 0.0, 0.0, 0.0, 0.0, 0.0, 0.0, 0.0, 0.0, 1.770498139963565E9, 0.0, 2026-02-07 15:02:19.963
170.0, -187500.02235174447, -56886.19546725696, -187500.02235174447, -187500.02235174447, -32512.6239672451, 6917.261411817242, -106456.66497429193, -11003.964961047765, -83910.41563873478, -187500.02235174447, -187500.02235174447, -177132.6574245283, -138027.58759589048, -12938.46374016568, 4332.080999860883, -187500.02235174447, -0.038, 0.932, 0.33, 192.0, 127.0, 104.0, 14.5, 16.0, 5.0, 40.0, 0.0, 0.0, 0.0, 1.770498139972484E9, 0.0, 2026-02-07 15:02:19.972
172.0, -187500.02235174447, -56904.322732010216, -187500.02235174447, -187500.02235174447, -32519.553008026247, 6916.344990294575, -106468.08671570859, -11019.365312977472, -83922.01619410708, -187500.02235174447, -187500.02235174447, -177127.67298551477, -138028.1687412463, -12949.259632737594, 4330.963412638118, -187500.02235174447, -0.038, 0.932, 0.33, 192.0, 0.0, 0.0, 0.0, 0.0, 0.0, 0.0, 0.0, 0.0, 0.0, 1.770498139980566E9, 0.0, 2026-02-07 15:02:19.980
174.0, -187500.02235174447, -56921.243002562886, -187500.02235174447, -187500.02235174447, -32526.459697062935, 6915.339161794086, -106478.16735245792, -11034.653906184902, -83930.86748491139, -187500.02235174447, -187500.02235174447, -177124.052002913, -138031.34268895898, -12964.61528117839, 4331.321040549403, -187500.02235174447, -0.038, 0.932, 0.33, 192.0, 0.0, 0.0, 0.0, 0.0, 0.0, 0.0, 0.0, 0.0, 0.0, 1.770498139987594E9, 0.0, 2026-02-07 15:02:19.987
176.0, -187500.02235174447, -56942.23129060642, -187500.02235174447, -187500.02235174447, -32536.495630323367, 6916.590859483584, -106488.87383805202, -11049.89779590342, -83939.60701699341, -187500.02235174447, -187500.02235174447, -177118.68758424374, -138033.15318025986, -12978.85334239642, 4331.9915928830615, -187500.02235174447, -0.038, 0.932, 0.33, 192.0, 0.0, 0.0, 0.0, 0.0, 0.0, 0.0, 0.0, 0.0, 0.0, 1.770498139995594E9, 0.0, 2026-02-07 15:02:19.995
178.0, -187500.02235174447, -56963.30898562777, -187500.02235174447, -187500.02235174447, -32547.29152289528, 6918.803682184659, -106498.887419568, -11064.269967588183, -83950.22409560968, -187500.02235174447, -187500.02235174447, -177115.40187780882, -138036.70710762826, -12994.343101303948, 4334.494988262056, -187500.02235174447, -0.038, 0.932, 0.33, 192.0, 0.0, 0.0, 0.0, 0.0, 0.0, 0.0, 0.0, 0.0, 0.0, 1.770498140004644E9, 0.0, 2026-02-07 15:02:20.004
180.0, -187500.02235174447, -56987.06888998376, -187500.02235174447, -187500.02235174447, -32556.500441610868, 6920.1894903408875, -106507.60459990556, -11074.61882527099, -83956.01319742361, -187500.02235174447, -187500.02235174447, -177110.81977019546, -138036.41653495032, -13008.201182866238, 4336.99838364105, -187500.02235174447, -0.038, 0.927, 0.329, 192.0, 127.0, 104.0, 14.0, 104.0, 5.0, 32.0, 0.0, 0.0, 0.0, 1.770498140011696E9, 0.0, 2026-02-07 15:02:20.011
182.0, -187500.02235174447, -57008.86184082769, -187500.02235174447, -187500.02235174447, -32565.619953348632, 6921.508243263751, -106517.97580933283, -11088.812183000111, -83965.69150277275, -187500.02235174447, -187500.02235174447, -177108.51754051656, -138036.05890703906, -13022.595706295457, 4340.172331353704, -187500.02235174447, -0.038, 0.927, 0.329, 192.0, 0.0, 0.0, 0.0, 0.0, 0.0, 0.0, 0.0, 0.0, 0.0, 1.770498140019611E9, 0.0, 2026-02-07 15:02:20.019
184.0, -187500.02235174447, -57023.77045437938, -187500.02235174447, -187500.02235174447, -32569.039770250296, 6918.826033929114, -106522.02147507924, -11099.876296505487, -83969.15602316333, -187500.02235174447, -187500.02235174447, -177098.52631074504, -138030.8733023254, -13028.943601720763, 4338.473598775101, -187500.02235174447, -0.038, 0.927, 0.329, 192.0, 0.0, 0.0, 0.0, 0.0, 0.0, 0.0, 0.0, 0.0, 0.0, 1.77049814002871E9, 0.0, 2026-02-07 15:02:20.028
186.0, -187500.02235174447, -57038.18732955305, -187500.02235174447, -187500.02235174447, -32575.789997075797, 6919.250717073765, -106528.90581237148, -11106.514764608713, -83972.2182121537, -187500.02235174447, -187500.02235174447, -177089.1609298183, -138028.0793342685, -13034.91151749033, 4337.423066785702, -187500.02235174447, -0.038, 0.927, 0.329, 192.0, 0.0, 0.0, 0.0, 0.0, 0.0, 0.0, 0.0, 0.0, 0.0, 1.770498140036658E9, 0.0, 2026-02-07 15:02:20.036
188.0, -187500.02235174447, -57049.1173325917, -187500.02235174447, -187500.02235174447, -32582.02613377883, 6919.094254862578, -106536.393646764, -11112.72854956729, -83972.3746743649, -187500.02235174447, -187500.02235174447, -177081.6060401924, -138028.7722383466, -13040.074770459507, 4339.457075531134, -187500.02235174447, -0.038, 0.927, 0.329, 192.0, 0.0, 0.0, 0.0, 0.0, 0.0, 0.0, 0.0, 0.0, 0.0, 1.77049814004375E9, 0.0, 2026-02-07 15:02:20.043
190.0, -187500.02235174447, -57055.77815243938, -187500.02235174447, -187500.02235174447, -32590.095113527193, 6920.435359529896, -106545.11082710157, -11122.898593294454, -83968.03843594056, -187500.02235174447, -187500.02235174447, -177072.53123194352, -138030.04628778057, -13042.712276305232, 4339.1441511087605, -187500.02235174447, -0.04, 0.9245000000000001, 0.3295, 192.0, 127.0, 88.0, 14.0, 104.0, 5.0, 40.0, 0.0, 0.0, 0.0, 1.770498140051765E9, 0.0, 2026-02-07 15:02:20.051
192.0, -187500.02235174447, -57057.67805071808, -187500.02235174447, -187500.02235174447, -32595.124256029638, 6921.485891519295, -106550.58700449312, -11130.140558497973, -83966.65262778434, -187500.02235174447, -187500.02235174447, -177063.52347892805, -138034.11430527145, -13046.847349029464, 4341.468732532112, -187500.02235174447, -0.04, 0.9245000000000001, 0.3295, 192.0, 0.0, 0.0, 0.0, 0.0, 0.0, 0.0, 0.0, 0.0, 0.0, 1.770498140060816E9, 0.0, 2026-02-07 15:02:20.060
194.0, -187500.02235174447, -57053.9676611385, -187500.02235174447, -187500.02235174447, -32596.8453403527, 6920.815339185637, -106553.82800743915, -11134.454445177847, -83961.8693544709, -187500.02235174447, -187500.02235174447, -177051.49824041108, -138035.56716866101, -13049.104875219451, 4341.021697643006, -187500.02235174447, -0.04, 0.9245000000000001, 0.3295, 192.0, 0.0, 0.0, 0.0, 0.0, 0.0, 0.0, 0.0, 0.0, 0.0, 1.770498140067855E9, 0.0, 2026-02-07 15:02:20.067
196.0, -187500.02235174447, -57049.27379480288, -187500.02235174447, -187500.02235174447, -32595.97362231894, 6920.211842085343, -106555.61614699557, -11135.616735889524, -83956.08025265698, -187500.02235174447, -187500.02235174447, -177038.26600769354, -138036.8188663505, -13050.758904309143, 4342.206340099137, -187500.02235174447, -0.04, 0.9245000000000001, 0.3295, 192.0, 0.0, 0.0, 0.0, 0.0, 0.0, 0.0, 0.0, 0.0, 0.0, 1.770498140075863E9, 0.0, 2026-02-07 15:02:20.075
198.0, -187500.02235174447, -57041.31657377679, -187500.02235174447, -187500.02235174447, -32591.88325308362, 6916.3673420390305, -106554.45385628389, -11134.521500411212, -83948.27949384207, -187500.02235174447, -187500.02235174447, -177021.74806854108, -138034.31547097152, -13047.584956596489, 4339.457075531134, -187500.02235174447, -0.04, 0.9245000000000001, 0.3295, 192.0, 0.0, 0.0, 0.0, 0.0, 0.0, 0.0, 0.0, 0.0, 0.0, 1.770498140084822E9, 0.0, 2026-02-07 15:02:20.084
200.0, -187500.02235174447, -57039.729599920465, -187500.02235174447, -187500.02235174447, -32594.274889740336, 6919.898917662968, -106558.03013539674, -11140.802340603155, -83943.98795890665, -187500.02235174447, -187500.02235174447, -177005.20777764413, -138030.7838953476, -13043.740456550177, 4338.361840052824, -187500.02235174447, -0.039, 0.92225, 0.32775, 192.0, 127.0, 104.0, 14.0, 96.0, 5.0, 24.0, 0.0, 0.0, 0.0, 1.770498140091883E9, 0.0, 2026-02-07 15:02:20.091
202.0, -187500.02235174447, -57031.90648936111, -187500.02235174447, -187500.02235174447, -32589.290450726803, 6914.758016438248, -106553.91741441697, -11139.327125469104, -83943.3621100619, -187500.02235174447, -187500.02235174447, -176991.39439957077, -138027.34172670147, -13042.801683283054, 4338.920633664207, -187500.02235174447, -0.039, 0.92225, 0.32775, 192.0, 0.0, 0.0, 0.0, 0.0, 0.0, 0.0, 0.0, 0.0, 0.0, 1.770498140099977E9, 0.0, 2026-02-07 15:02:20.099
204.0, -187500.02235174447, -57030.6100881827, -187500.02235174447, -187500.02235174447, -32589.983354804917, 6916.344990294575, -106554.58796675062, -11140.936451069887, -83938.42237453727, -187500.02235174447, -187500.02235174447, -176972.61893422832, -138018.44573240826, -13039.6277355704, 4335.634927229277, -187500.02235174447, -0.039, 0.92225, 0.32775, 192.0, 0.0, 0.0, 0.0, 0.0, 0.0, 0.0, 0.0, 0.0, 0.0, 1.770498140108005E9, 0.0, 2026-02-07 15:02:20.108
206.0, -187500.02235174447, -57032.7111521615, -187500.02235174447, -187500.02235174447, -32592.196177505994, 6919.496586262773, -106558.18659760793, -11145.853834850053, -83938.1094501149, -187500.02235174447, -187500.02235174447, -176962.24772480104, -138015.16002597334, -13046.847349029464, 4340.082924375883, -187500.02235174447, -0.039, 0.92225, 0.32775, 192.0, 0.0, 0.0, 0.0, 0.0, 0.0, 0.0, 0.0, 0.0, 0.0, 1.770498140116977E9, 0.0, 2026-02-07 15:02:20.116
208.0, -187500.02235174447, -57029.447797471024, -187500.02235174447, -187500.02235174447, -32589.26809898235, 6918.021371128723, -106556.95725166288, -11143.953936571354, -83930.3086913, -187500.02235174447, -187500.02235174447, -176946.73561414905, -138006.91223226933, -13050.11070371994, 4340.105276120338, -187500.02235174447, -0.039, 0.92225, 0.32775, 192.0, 0.0, 0.0, 0.0, 0.0, 0.0, 0.0, 0.0, 0.0, 0.0, 1.770498140124096E9, 0.0, 2026-02-07 15:02:20.124
210.0, -187500.02235174447, -57029.26898351539, -187500.02235174447, -187500.02235174447, -32588.35167745968, 6916.769673439226, -106557.98543190783, -11142.903404581954, -83924.72075518618, -187500.02235174447, -187500.02235174447, -176931.22350349708, -137998.50797635413, -13054.335183421992, 4339.546482508956, -187500.02235174447, -0.0395, 0.919125, 0.32887500000000003, 192.0, 127.0, 96.0, 14.0, 80.0, 5.0, 40.0, 0.0, 0.0, 0.0, 1.770498140132022E9, 0.0, 2026-02-07 15:02:20.132
212.0, -187500.02235174447, -57028.889003859644, -187500.02235174447, -187500.02235174447, -32586.071799525238, 6914.914478649435, -106558.07483888566, -11140.86939583652, -83922.32911852947, -187500.02235174447, -187500.02235174447, -176914.39263992224, -137990.30488613903, -13057.263261945638, 4337.199549341149, -187500.02235174447, -0.0395, 0.919125, 0.32887500000000003, 192.0, 0.0, 0.0, 0.0, 0.0, 0.0, 0.0, 0.0, 0.0, 0.0, 1.7704981401401E9, 0.0, 2026-02-07 15:02:20.140
214.0, -187500.02235174447, -57034.566346951295, -187500.02235174447, -187500.02235174447, -32587.45760768147, 6915.696789705371, -106560.24295809782, -11142.344610970571, -83924.89956914182, -187500.02235174447, -187500.02235174447, -176900.31104091537, -137983.15232791333, -13061.353631180958, 4336.90897666323, -187500.02235174447, -0.0395, 0.919125, 0.32887500000000003, 192.0, 0.0, 0.0, 0.0, 0.0, 0.0, 0.0, 0.0, 0.0, 0.0, 1.77049814014811E9, 0.0, 2026-02-07 15:02:20.148
216.0, -187500.02235174447, -57040.17663480958, -187500.02235174447, -187500.02235174447, -32587.569366403746, 6915.875603661014, -106560.86880694257, -11139.662401635935, -83932.47681051216, -187500.02235174447, -187500.02235174447, -176888.73283728753, -137978.07848192198, -13065.421648671825, 4338.183026097182, -187500.02235174447, -0.0395, 0.919125, 0.32887500000000003, 192.0, 0.0, 0.0, 0.0, 0.0, 0.0, 0.0, 0.0, 0.0, 0.0, 1.770498140156142E9, 0.0, 2026-02-07 15:02:20.156
218.0, -187500.02235174447, -57047.95504188002, -187500.02235174447, -187500.02235174447, -32585.624764636133, 6913.618077471027, -106559.90768193098, -11136.399046945458, -83939.91994141579, -187500.02235174447, -187500.02235174447, -176876.17115690364, -137967.4614033057, -13066.382773683403, 4337.311308063425, -187500.02235174447, -0.0395, 0.919125, 0.32887500000000003, 192.0, 0.0, 0.0, 0.0, 0.0, 0.0, 0.0, 0.0, 0.0, 0.0, 1.770498140164228E9, 0.0, 2026-02-07 15:02:20.164
220.0, -187500.02235174447, -57056.47105651749, -187500.02235174447, -187500.02235174447, -32584.10484601317, 6912.388731525985, -106558.94655691941, -11134.63325913349, -83944.52440077357, -187500.02235174447, -187500.02235174447, -176863.67653175312, -137956.53140026706, -13068.595596384479, 4334.696153962154, -187500.02235174447, -0.0395, 0.919125, 0.32887500000000003, 192.0, 0.0, 0.0, 0.0, 0.0, 0.0, 0.0, 0.0, 0.0, 0.0, 1.770498140171302E9, 0.0, 2026-02-07 15:02:20.171
222.0, -187500.02235174447, -57070.77617296889, -187500.02235174447, -187500.02235174447, -32583.344886701692, 6912.455786759351, -106560.44412379792, -11134.409741688936, -83957.15313639083, -187500.02235174447, -187500.02235174447, -176854.98170316, -137947.09896410693, -13078.743288367188, 4336.23842432957, -187500.02235174447, -0.046, 0.918, 0.336, 192.0, 127.0, 72.0, 14.0, 88.0, 5.0, 64.0, 0.0, 0.0, 0.0, 1.770498140179352E9, 0.0, 2026-02-07 15:02:20.179
224.0, -187500.02235174447, -57085.86360047622, -187500.02235174447, -187500.02235174447, -32582.651982623578, 6912.299324548165, -106562.43342905444, -11133.113340510528, -83968.97720920769, -187500.02235174447, -187500.02235174447, -176844.20816233256, -137933.19617905573, -13088.555704183067, 4334.584395239877, -187500.02235174447, -0.046, 0.918, 0.336, 192.0, 0.0, 0.0, 0.0, 0.0, 0.0, 0.0, 0.0, 0.0, 0.0, 1.770498140188326E9, 0.0, 2026-02-07 15:02:20.188
226.0, -187500.02235174447, -57104.616714074225, -187500.02235174447, -187500.02235174447, -32582.383761690115, 6911.60642047005, -106564.26627209978, -11133.49332016627, -83980.46600585771, -187500.02235174447, -187500.02235174447, -176835.75920292846, -137921.57327193895, -13100.35742525547, 4335.500816762545, -187500.02235174447, -0.046, 0.918, 0.336, 192.0, 0.0, 0.0, 0.0, 0.0, 0.0, 0.0, 0.0, 0.0, 0.0, 1.770498140196385E9, 0.0, 2026-02-07 15:02:20.196
228.0, -187500.02235174447, -57127.326086440815, -187500.02235174447, -187500.02235174447, -32584.775398346832, 6913.059283859645, -106568.69191750193, -11134.163872499928, -83992.51359611913, -187500.02235174447, -187500.02235174447, -176829.43365924762, -137912.38670496782, -13110.952152127285, 4336.059610373928, -187500.02235174447, -0.046, 0.918, 0.336, 192.0, 0.0, 0.0, 0.0, 0.0, 0.0, 0.0, 0.0, 0.0, 0.0, 1.770498140203375E9, 0.0, 2026-02-07 15:02:20.203
230.0, -187500.02235174447, -57152.76237163095, -187500.02235174447, -187500.02235174447, -32585.78122684732, 6912.522841992717, -106571.03885066973, -11133.001581788252, -84004.91881429181, -187500.02235174447, -187500.02235174447, -176824.20335104506, -137905.1894432532, -13117.724730697242, 4337.132494107783, -187500.02235174447, -0.046, 0.918, 0.336, 192.0, 0.0, 0.0, 0.0, 0.0, 0.0, 0.0, 0.0, 0.0, 0.0, 1.77049814021152E9, 0.0, 2026-02-07 15:02:20.211
232.0, -187500.02235174447, -57176.72344168704, -187500.02235174447, -187500.02235174447, -32585.669468125045, 6909.930039635902, -106572.29054835923, -11131.10168350955, -84013.52423590711, -187500.02235174447, -187500.02235174447, -176819.80005738736, -137898.08158851645, -13121.83745167702, 4336.260776074026, -187500.02235174447, -0.048, 0.924, 0.34, 192.0, 127.0, 64.0, 14.0, 112.0, 5.0, 80.0, 0.0, 0.0, 0.0, 1.770498140220426E9, 0.0, 2026-02-07 15:02:20.220
234.0, -187500.02235174447, -57203.00909316649, -187500.02235174447, -187500.02235174447, -32586.11650301415, 6907.940734379379, -106573.8551704711, -11131.30284920965, -84012.96544229572, -187500.02235174447, -187500.02235174447, -176812.7369061395, -137887.8891930448, -13122.776224944142, 4332.930366150184, -187500.02235174447, -0.048, 0.924, 0.34, 192.0, 0.0, 0.0, 0.0, 0.0, 0.0, 0.0, 0.0, 0.0, 0.0, 1.770498140228148E9, 0.0, 2026-02-07 15:02:20.228
236.0, -187500.02235174447, -57224.019732954475, -187500.02235174447, -187500.02235174447, -32588.21756699295, 6907.404292512452, -106577.74437400632, -11132.845119577065, -84014.95474755226, -187500.02235174447, -187500.02235174447, -176810.4793799495, -137883.4411958982, -13127.78301570213, 4332.5727382389, -187500.02235174447, -0.048, 0.924, 0.34, 192.0, 0.0, 0.0, 0.0, 0.0, 0.0, 0.0, 0.0, 0.0, 0.0, 1.770498140235453E9, 0.0, 2026-02-07 15:02:20.235
238.0, -187500.02235174447, -57252.33939317935, -187500.02235174447, -187500.02235174447, -32594.856035096174, 6911.472310003318, -106585.4557258434, -11138.522462668714, -84020.31916622152, -187500.02235174447, -187500.02235174447, -176808.44537120408, -137880.60252435238, -13132.946268671307, 4335.053781873439, -187500.02235174447, -0.048, 0.924, 0.34, 192.0, 0.0, 0.0, 0.0, 0.0, 0.0, 0.0, 0.0, 0.0, 0.0, 1.770498140243496E9, 0.0, 2026-02-07 15:02:20.243
240.0, -187500.02235174447, -57285.21880927311, -187500.02235174447, -187500.02235174447, -32600.622785165644, 6911.27114430322, -106591.80362126871, -11141.785817359189, -84035.27248326213, -187500.02235174447, -187500.02235174447, -176810.8817113497, -137881.76481506406, -13142.557518787089, 4338.227729586092, -187500.02235174447, -0.048, 0.924, 0.34, 192.0, 0.0, 0.0, 0.0, 0.0, 0.0, 0.0, 0.0, 0.0, 0.0, 1.770498140251604E9, 0.0, 2026-02-07 15:02:20.251
242.0, -187500.02235174447, -57320.40045504576, -187500.02235174447, -187500.02235174447, -32604.959023589974, 6908.946562879868, -106597.0115777268, -11144.06569529363, -84048.77293691313, -187500.02235174447, -187500.02235174447, -176811.46285670553, -137881.36248366386, -13147.586661289533, 4337.288956318969, -187500.02235174447, -0.048, 0.922, 0.338, 192.0, 127.0, 64.0, 14.0, 104.0, 5.0, 72.0, 0.0, 0.0, 0.0, 1.770498140259621E9, 0.0, 2026-02-07 15:02:20.259
244.0, -187500.02235174447, -57356.789095019, -187500.02235174447, -187500.02235174447, -32612.044526582307, 6907.717216934827, -106605.99697899783, -11147.910195339942, -84062.51925975314, -187500.02235174447, -187500.02235174447, -176813.96625208453, -137884.37996916534, -13154.359239859492, 4335.456113273634, -187500.02235174447, -0.048, 0.922, 0.338, 192.0, 0.0, 0.0, 0.0, 0.0, 0.0, 0.0, 0.0, 0.0, 0.0, 1.77049814026861E9, 0.0, 2026-02-07 15:02:20.268
246.0, -187500.02235174447, -57390.42847042424, -187500.02235174447, -187500.02235174447, -32619.375898763647, 6906.934905878891, -106614.13301397956, -11151.128846541507, -84079.97597217275, -187500.02235174447, -187500.02235174447, -176818.2801387644, -137891.2419547131, -13163.344641130525, 4336.99838364105, -187500.02235174447, -0.048, 0.922, 0.338, 192.0, 0.0, 0.0, 0.0, 0.0, 0.0, 0.0, 0.0, 0.0, 0.0, 1.770498140275658E9, 0.0, 2026-02-07 15:02:20.275
248.0, -187500.02235174447, -57424.581935951945, -187500.02235174447, -187500.02235174447, -32627.869561656662, 6905.884373889491, -106624.25835421782, -11156.314451255137, -84093.25290837919, -187500.02235174447, -187500.02235174447, -176819.42007773163, -137895.75700709308, -13170.497199356223, 4335.590223740366, -187500.02235174447, -0.048, 0.922, 0.338, 192.0, 0.0, 0.0, 0.0, 0.0, 0.0, 0.0, 0.0, 0.0, 0.0, 1.770498140282685E9, 0.0, 2026-02-07 15:02:20.282
250.0, -187500.02235174447, -57458.37777356837, -187500.02235174447, -187500.02235174447, -32635.916189660573, 6904.632676199994, -106633.71314212242, -11160.896558868475, -84105.0546294516, -187500.02235174447, -187500.02235174447, -176821.4317347326, -137904.3400769639, -13177.649757581921, 4336.2160725851145, -187500.02235174447, -0.048, 0.922, 0.338, 192.0, 0.0, 0.0, 0.0, 0.0, 0.0, 0.0, 0.0, 0.0, 0.0, 1.770498140291721E9, 0.0, 2026-02-07 15:02:20.291
252.0, -187500.02235174447, -57492.01714897361, -187500.02235174447, -187500.02235174447, -32642.979340908452, 6900.922286620413, -106641.4244939595, -11164.048154836673, -84112.02837372165, -187500.02235174447, -187500.02235174447, -176820.5823684433, -137909.77155086657, -13180.689594827843, 4333.399752783746, -187500.02235174447, -0.04, 0.92, 0.34, 192.0, 127.0, 96.0, 14.0, 96.0, 5.0, 80.0, 0.0, 0.0, 0.0, 1.770498140299683E9, 0.0, 2026-02-07 15:02:20.299
254.0, -187500.02235174447, -57529.299858725055, -187500.02235174447, -187500.02235174447, -32653.59641952472, 6900.877583131502, -106652.71212490942, -11171.178361317918, -84121.55021685961, -187500.02235174447, -187500.02235174447, -176821.1411620547, -137917.1476265368, -13185.22699895227, 4332.148055094249, -187500.02235174447, -0.04, 0.92, 0.34, 192.0, 0.0, 0.0, 0.0, 0.0, 0.0, 0.0, 0.0, 0.0, 0.0, 1.770498140307808E9, 0.0, 2026-02-07 15:02:20.307
0.0, -187500.02235174447, -57573.17633309083, -187500.02235174447, -187500.02235174447, -32666.716893519988, 6903.2245162993095, -106667.44192450547, -11182.30953005666, -84136.79410657813, -187500.02235174447, -187500.02235174447, -176827.64551969117, -137927.07180107496, -13197.27458921368, 4335.590223740366, -187500.02235174447, -0.04, 0.92, 0.34, 192.0, 0.0, 0.0, 0.0, 0.0, 0.0, 0.0, 0.0, 0.0, 0.0, 1.77049814031479E9, 0.0, 2026-02-07 15:02:20.314
2.0, -187500.02235174447, -57612.62716205444, -187500.02235174447, -187500.02235174447, -32674.5623558238, 6900.385844753486, -106675.19797983146, -11186.444602780892, -84148.10408927251, -187500.02235174447, -187500.02235174447, -176832.16057207115, -137934.00084185612, -13209.880973086474, 4335.590223740366, -187500.02235174447, -0.04, 0.92, 0.34, 192.0, 0.0, 0.0, 0.0, 0.0, 0.0, 0.0, 0.0, 0.0, 0.0, 1.770498140323763E9, 0.0, 2026-02-07 15:02:20.323
4.0, -187500.02235174447, -57654.82725558606, -187500.02235174447, -187500.02235174447, -32685.04532397334, 6897.994208096768, -106685.85976193665, -11192.568980761645, -84159.25760975572, -187500.02235174447, -187500.02235174447, -176835.02159536144, -137938.60530121392, -13224.297848260147, 4333.287994061469, -187500.02235174447, -0.04, 0.92, 0.34, 192.0, 0.0, 0.0, 0.0, 0.0, 0.0, 0.0, 0.0, 0.0, 0.0, 1.770498140330829E9, 0.0, 2026-02-07 15:02:20.330
6.0, -187500.02235174447, -57693.83104966057, -187500.02235174447, -187500.02235174447, -32697.09291423475, 6898.731815663793, -106699.22610512092, -11202.001416921785, -84177.16135706441, -187500.02235174447, -187500.02235174447, -176841.41419427565, -137947.0095571291, -13242.089836846571, 4334.629098728788, -187500.02235174447, -0.034, 0.92, 0.34, 192.0, 127.0, 120.0, 14.0, 96.0, 5.0, 80.0, 0.0, 0.0, 0.0, 1.770498140338921E9, 0.0, 2026-02-07 15:02:20.338
8.0, -187459.9009704472, -57729.102102411045, -187500.02235174447, -187500.02235174447, -32706.726516094986, 6897.278952274198, -106709.86553548164, -11209.153975147483, -84192.85228167204, -187500.02235174447, -187500.02235174447, -176845.5939704888, -137954.05035663254, -13257.512540520733, 4334.76320919552, -187500.02235174447, -0.034, 0.92, 0.34, 192.0, 0.0, 0.0, 0.0, 0.0, 0.0, 0.0, 0.0, 0.0, 0.0, 1.770498140347947E9, 0.0, 2026-02-07 15:02:20.347
10.0, -187404.0886645423, -57759.27695742571, -187500.02235174447, -187500.02235174447, -32715.66721387711, 6897.167193551922, -106719.1415094306, -11219.234611896827, -84208.29733709065, -187500.02235174447, -187500.02235174447, -176849.41611879066, -137965.6509120048, -13272.868188961529, 4335.0984853623495, -187500.02235174447, -0.034, 0.92, 0.34, 192.0, 0.0, 0.0, 0.0, 0.0, 0.0, 0.0, 0.0, 0.0, 0.0, 1.77049814035589E9, 0.0, 2026-02-07 15:02:20.355
12.0, -187346.89055048116, -57787.48485892831, -187500.02235174447, -187500.02235174447, -32723.37856571419, 6895.6472749289605, -106730.18327119152, -11229.717580046366, -84219.98729944078, -187500.02235174447, -187500.02235174447, -176851.9418659141, -137975.15040339832, -13289.028500202716, 4335.880796418285, -187500.02235174447, -0.034, 0.92, 0.34, 192.0, 0.0, 0.0, 0.0, 0.0, 0.0, 0.0, 0.0, 0.0, 0.0, 1.770498140362969E9, 0.0, 2026-02-07 15:02:20.362
14.0, -187293.3581225107, -57811.82590864014, -187500.02235174447, -187500.02235174447, -32730.531123939887, 6894.753205150749, -106740.0403904963, -11240.848748785109, -84228.50331407826, -187500.02235174447, -187500.02235174447, -176852.21008684757, -137980.09013892297, -13303.713596309854, 4334.070305117405, -187500.02235174447, -0.034, 0.92, 0.34, 192.0, 0.0, 0.0, 0.0, 0.0, 0.0, 0.0, 0.0, 0.0, 0.0, 1.770498140370958E9, 0.0, 2026-02-07 15:02:20.370
16.0, -187244.36309866467, -57839.0503333867, -187500.02235174447, -187500.02235174447, -32741.438775234077, 6897.4130627409295, -106753.6526028696, -11255.220920469872, -84236.3264246376, -187500.02235174447, -187500.02235174447, -176855.4957932825, -137989.1649471718, -13323.651352363988, 4336.99838364105, -187500.02235174447, -0.033, 0.921, 0.34, 192.0, 127.5, 0.0, 14.0, 104.0, 5.0, 80.0, 0.0, 0.0, 0.0, 1.770498140379975E9, 0.0, 2026-02-07 15:02:20.379
18.0, -187194.40694980705, -57857.40111558451, -187500.02235174447, -187500.02235174447, -32748.81485090433, 6895.915495862424, -106763.46501868547, -11264.318080463181, -84243.21076192985, -187500.02235174447, -187500.02235174447, -176856.70278748308, -137999.51380485462, -13340.884547339028, 4338.451247030645, -187500.02235174447, -0.033, 0.921, 0.34, 192.0, 0.0, 0.0, 0.0, 0.0, 0.0, 0.0, 0.0, 0.0, 0.0, 1.770498140386966E9, 0.0, 2026-02-07 15:02:20.386
20.0, -187147.91532134003, -57880.26695016229, -187500.02235174447, -187500.02235174447, -32758.649618464664, 6897.346007507564, -106773.61271066818, -11277.99734806983, -84249.80452654416, -187500.02235174447, -187500.02235174447, -176854.57937175984, -138009.39327590386, -13352.21688177787, 4338.697116219654, -187500.02235174447, -0.033, 0.921, 0.34, 192.0, 0.0, 0.0, 0.0, 0.0, 0.0, 0.0, 0.0, 0.0, 0.0, 1.770498140395033E9, 0.0, 2026-02-07 15:02:20.395
22.0, -187106.13991095306, -57904.69740685194, -187500.02235174447, -187500.02235174447, -32768.88671742519, 6900.184679053388, -106784.6097689402, -11291.050766831728, -84258.61111385956, -187500.02235174447, -187500.02235174447, -176857.01571190546, -138025.66534586734, -13366.991384862828, 4341.960470910129, -187500.02235174447, -0.033, 0.921, 0.34, 192.0, 0.0, 0.0, 0.0, 0.0, 0.0, 0.0, 0.0, 0.0, 0.0, 1.770498140402988E9, 0.0, 2026-02-07 15:02:20.402
24.0, -187059.5588755082, -57931.564203687216, -187500.02235174447, -187500.02235174447, -32778.67678149662, 6900.743472664771, -106791.71762367697, -11300.214982058404, -84266.76950058574, -187500.02235174447, -187500.02235174447, -176857.77567121695, -138039.76929661862, -13379.195437335426, 4344.776790711498, -187500.02235174447, -0.033, 0.921, 0.34, 192.0, 0.0, 0.0, 0.0, 0.0, 0.0, 0.0, 0.0, 0.0, 0.0, 1.770498140411052E9, 0.0, 2026-02-07 15:02:20.411
26.0, -187009.26745048375, -57957.87220691112, -187500.02235174447, -187500.02235174447, -32787.550424045374, 6898.88827787498, -106799.22780981396, -11307.658112962023, -84271.86569832155, -187500.02235174447, -187500.02235174447, -176858.91561018417, -138050.6322444239, -13391.399489808022, 4344.262700589025, -187500.02235174447, -0.035500000000000004, 0.9215, 0.335, 192.0, 127.0, 104.0, 14.0, 104.0, 5.0, 40.0, 0.0, 0.0, 0.0, 1.770498140419106E9, 0.0, 2026-02-07 15:02:20.419
28.0, -186958.7748597592, -57989.8352014822, -187500.02235174447, -187500.02235174447, -32793.25011888148, 6898.105966819045, -106808.0120453849, -11316.911735166519, -84276.71602686835, -187500.02235174447, -187500.02235174447, -176859.742624729, -138059.1929625503, -13401.480126557366, 4343.748610466553, -187500.02235174447, -0.035500000000000004, 0.9215, 0.335, 192.0, 0.0, 0.0, 0.0, 0.0, 0.0, 0.0, 0.0, 0.0, 0.0, 1.770498140427167E9, 0.0, 2026-02-07 15:02:20.427
30.0, -186903.6107544435, -58032.10235024719, -187500.02235174447, -187500.02235174447, -32802.21316840806, 6900.5199552202175, -106821.89247869165, -11331.306258595736, -84286.48373919532, -187500.02235174447, -187500.02235174447, -176867.252810866, -138071.4417185118, -13416.478147086877, 4345.089715133871, -187500.02235174447, -0.035500000000000004, 0.9215, 0.335, 192.0, 0.0, 0.0, 0.0, 0.0, 0.0, 0.0, 0.0, 0.0, 0.0, 1.770498140435187E9, 0.0, 2026-02-07 15:02:20.435
32.0, -186851.03945148463, -58066.18876054153, -187500.02235174447, -187500.02235174447, -32807.26466265496, 6899.156498808444, -106829.02268517288, -11339.732866255388, -84294.12803579903, -187500.02235174447, -187500.02235174447, -176875.0982731698, -138080.65063722737, -13430.917374005006, 4347.3025378349475, -187500.02235174447, -0.035500000000000004, 0.9215, 0.335, 192.0, 0.0, 0.0, 0.0, 0.0, 0.0, 0.0, 0.0, 0.0, 0.0, 1.770498140442152E9, 0.0, 2026-02-07 15:02:20.442
34.0, -186804.77134046215, -58092.22854283197, -187500.02235174447, -187500.02235174447, -32815.75832554798, 6899.000036597256, -106838.1645486551, -11349.880558238097, -84290.66351540847, -187500.02235174447, -187500.02235174447, -176879.61332554978, -138085.54566926308, -13440.863900287617, 4346.81079945693, -187500.02235174447, -0.035500000000000004, 0.9215, 0.335, 192.0, 0.0, 0.0, 0.0, 0.0, 0.0, 0.0, 0.0, 0.0, 0.0, 1.770498140451176E9, 0.0, 2026-02-07 15:02:20.451
36.0, -186769.5896946895, -58106.198383116534, -187500.02235174447, -187500.02235174447, -32819.26754942746, 6896.4072342404415, -106842.65724929063, -11353.233319906392, -84284.00269556078, -187500.02235174447, -187500.02235174447, -176877.6910755266, -138086.43973904132, -13449.312859691723, 4345.849674445352, -187500.02235174447, -0.037750000000000006, 0.9217500000000001, 0.3335, 192.0, 127.0, 96.0, 14.0, 104.0, 5.0, 48.0, 0.0, 0.0, 0.0, 1.770498140459213E9, 0.0, 2026-02-07 15:02:20.459
38.0, -186745.1815897443, -58115.9660954435, -187500.02235174447, -187500.02235174447, -32823.38027040724, 6896.1166615625225, -106848.96044122701, -11360.519988598822, -84270.85986982106, -187500.02235174447, -187500.02235174447, -176871.3431801013, -138082.14820410588, -13451.771551581807, 4344.821494200408, -187500.02235174447, -0.037750000000000006, 0.9217500000000001, 0.3335, 192.0, 0.0, 0.0, 0.0, 0.0, 0.0, 0.0, 0.0, 0.0, 0.0, 1.770498140467299E9, 0.0, 2026-02-07 15:02:20.467
40.0, -186727.23313894667, -58118.13421465567, -187500.02235174447, -187500.02235174447, -32823.69319482961, 6894.730853406293, -106851.79911277285, -11365.459724123446, -84252.50908762326, -187500.02235174447, -187500.02235174447, -176860.86021195177, -138076.33675054752, -13447.748237579852, 4343.390982555268, -187500.02235174447, -0.037750000000000006, 0.9217500000000001, 0.3335, 192.0, 0.0, 0.0, 0.0, 0.0, 0.0, 0.0, 0.0, 0.0, 0.0, 1.770498140475267E9, 0.0, 2026-02-07 15:02:20.475
42.0, -186718.40419988683, -58121.62108679069, -187500.02235174447, -187500.02235174447, -32829.750517577, 6899.491774975273, -106860.4268861326, -11374.623939350122, -84239.8356485171, -187500.02235174447, -187500.02235174447, -176853.17121185915, -138077.27552381463, -13449.402266669544, 4346.00613665654, -187500.02235174447, -0.037750000000000006, 0.9217500000000001, 0.3335, 192.0, 0.0, 0.0, 0.0, 0.0, 0.0, 0.0, 0.0, 0.0, 0.0, 1.770498140483249E9, 0.0, 2026-02-07 15:02:20.483
44.0, -186719.85706327643, -58106.04192090534, -187500.02235174447, -187500.02235174447, -32826.710680331074, 6897.7036354188485, -106859.44340937656, -11373.171075960527, -84226.51400882173, -187500.02235174447, -187500.02235174447, -176841.01186287546, -138079.82362268254, -13449.402266669544, 4348.978918669095, -187500.02235174447, -0.037750000000000006, 0.9217500000000001, 0.3335, 192.0, 0.0, 0.0, 0.0, 0.0, 0.0, 0.0, 0.0, 0.0, 0.0, 1.770498140491409E9, 0.0, 2026-02-07 15:02:20.491
46.0, -186737.00085127365, -58074.36949901217, -187500.02235174447, -187500.02235174447, -32822.933235518125, 6897.2342487852875, -106858.66109832062, -11372.545227115777, -84197.65790672993, -187500.02235174447, -187500.02235174447, -176815.6426329187, -138071.06173885605, -13438.695781075452, 4346.162598867726, -187500.02235174447, -0.040875, 0.9208750000000001, 0.33175, 192.0, 127.0, 80.0, 14.0, 96.0, 5.0, 40.0, 0.0, 0.0, 0.0, 1.770498140498427E9, 0.0, 2026-02-07 15:02:20.498
48.0, -186755.55279917156, -58052.91182433508, -187500.02235174447, -187500.02235174447, -32817.144133704205, 6895.714330162326, -106855.46479886351, -11369.505389869857, -84161.53748769016, -187500.02235174447, -187500.02235174447, -176789.80401632836, -138060.66817768433, -13429.240993170857, 4345.067363389417, -187500.02235174447, -0.040875, 0.9208750000000001, 0.33175, 192.0, 0.0, 0.0, 0.0, 0.0, 0.0, 0.0, 0.0, 0.0, 0.0, 1.770498140507532E9, 0.0, 2026-02-07 15:02:20.507
50.0, -186775.40114824788, -58036.05860901578, -187500.02235174447, -187500.02235174447, -32812.27145341295, 6895.60257144005, -106855.19657793005, -11367.001994490862, -84126.37819366196, -187500.02235174447, -187500.02235174447, -176766.20057418355, -138047.7935728781, -13424.27890590178, 4344.1956453556595, -187500.02235174447, -0.040875, 0.9208750000000001, 0.33175, 192.0, 0.0, 0.0, 0.0, 0.0, 0.0, 0.0, 0.0, 0.0, 0.0, 1.770498140515313E9, 0.0, 2026-02-07 15:02:20.515
52.0, -186803.29612532808, -58017.64077158461, -187500.02235174447, -187500.02235174447, -32807.8905114997, 6896.921324362913, -106855.55420584134, -11364.230378178403, -84085.25098386419, -187500.02235174447, -187500.02235174447, -176743.20062913903, -138030.7838953476, -13417.685141287464, 4343.815665699919, -187500.02235174447, -0.040875, 0.9208750000000001, 0.33175, 192.0, 0.0, 0.0, 0.0, 0.0, 0.0, 0.0, 0.0, 0.0, 0.0, 1.770498140522388E9, 0.0, 2026-02-07 15:02:20.522
54.0, -186821.0881139145, -57998.91000973106, -187500.02235174447, -187500.02235174447, -32803.48721784201, 6896.004902840245, -106854.5707290853, -11361.235244421392, -84041.59802694297, -187500.02235174447, -187500.02235174447, -176721.2512160839, -138011.15906371584, -13409.593809794642, 4343.659203488732, -187500.02235174447, -0.040875, 0.9208750000000001, 0.33175, 192.0, 0.0, 0.0, 0.0, 0.0, 0.0, 0.0, 0.0, 0.0, 0.0, 1.770498140530435E9, 0.0, 2026-02-07 15:02:20.530
56.0, -186844.82566652604, -57981.207428122456, -187500.02235174447, -187500.02235174447, -32804.60480506477, 6898.441242985874, -106856.91766225311, -11360.72115429892, -84003.06361950203, -187500.02235174447, -187500.02235174447, -176701.98401236345, -137995.8704705084, -13403.737652747352, 4344.933252922685, -187500.02235174447, -0.0494375, 0.9264375, 0.33487500000000003, 192.0, 127.0, 24.0, 14.5, 16.0, 5.0, 72.0, 0.0, 0.0, 0.0, 1.770498140539456E9, 0.0, 2026-02-07 15:02:20.539
58.0, -186863.53407663514, -57962.43196278, -187500.02235174447, -187500.02235174447, -32803.04018295291, 6896.943676107368, -106857.8787872647, -11356.474322852413, -83958.58364803597, -187500.02235174447, -187500.02235174447, -176680.99572431992, -137980.78304300108, -13395.445155554433, 4344.977956411595, -187500.02235174447, -0.0494375, 0.9264375, 0.33487500000000003, 192.0, 0.0, 0.0, 0.0, 0.0, 0.0, 0.0, 0.0, 0.0, 0.0, 1.770498140546512E9, 0.0, 2026-02-07 15:02:20.546
60.0, -186879.8061465986, -57944.5282154713, -187500.02235174447, -187500.02235174447, -32804.51539808696, 6896.898972618458, -106860.00220298795, -11355.021459462818, -83912.53905445803, -187500.02235174447, -187500.02235174447, -176658.42046242006, -137968.556638784, -13384.470449026878, 4342.72043022161, -187500.02235174447, -0.0494375, 0.9264375, 0.33487500000000003, 192.0, 0.0, 0.0, 0.0, 0.0, 0.0, 0.0, 0.0, 0.0, 0.0, 1.770498140554519E9, 0.0, 2026-02-07 15:02:20.554
62.0, -186898.00046658522, -57929.41843621951, -187500.02235174447, -187500.02235174447, -32807.2423109105, 6897.055434829645, -106862.50559836693, -11353.501540839856, -83878.60910637488, -187500.02235174447, -187500.02235174447, -176638.57211334375, -137964.93565618226, -13375.507399500299, 4344.083886633383, -187500.02235174447, -0.0494375, 0.9264375, 0.33487500000000003, 192.0, 0.0, 0.0, 0.0, 0.0, 0.0, 0.0, 0.0, 0.0, 0.0, 1.770498140563463E9, 0.0, 2026-02-07 15:02:20.563
64.0, -186920.35221104053, -57909.41362493201, -187500.02235174447, -187500.02235174447, -32807.80110452189, 6896.004902840245, -106861.74563905546, -11346.930127969996, -83844.34388212489, -187500.02235174447, -187500.02235174447, -176614.65574677655, -137962.32050208098, -13360.97876560435, 4341.736953465575, -187500.02235174447, -0.0494375, 0.9264375, 0.33487500000000003, 192.0, 0.0, 0.0, 0.0, 0.0, 0.0, 0.0, 0.0, 0.0, 0.0, 1.770498140571569E9, 0.0, 2026-02-07 15:02:20.571
66.0, -186957.00907194725, -57885.497258364834, -187500.02235174447, -187500.02235174447, -32809.097505700294, 6897.569524952117, -106860.73981055497, -11341.588061045179, -83806.32356480641, -187500.02235174447, -187500.02235174447, -176589.1747580975, -137959.83945844645, -13344.438474707422, 4343.390982555268, -187500.02235174447, -0.0494375, 0.9264375, 0.33487500000000003, 192.0, 0.0, 0.0, 0.0, 0.0, 0.0, 0.0, 0.0, 0.0, 0.0, 1.770498140578634E9, 0.0, 2026-02-07 15:02:20.578
68.0, -186998.96329628985, -57847.38753406853, -187500.02235174447, -187500.02235174447, -32804.135418431215, 6895.848440629058, -106855.1742261856, -11330.032209161784, -83768.95144807715, -187500.02235174447, -187500.02235174447, -176556.58591468167, -137951.54696125354, -13320.410349417967, 4342.206340099137, -187500.02235174447, -0.048, 0.924, 0.342, 192.0, 127.0, 64.0, 14.0, 112.0, 5.0, 88.0, 0.0, 0.0, 0.0, 1.770498140586607E9, 0.0, 2026-02-07 15:02:20.586
70.0, -187060.98938715333, -57793.47512644233, -187500.02235174447, -187500.02235174447, -32797.72046777254, 6896.384882495986, -106848.78162727138, -11317.694046222454, -83738.95540701812, -187500.02235174447, -187500.02235174447, -176515.63751883956, -137935.07372558996, -13290.369604870035, 4340.172331353704, -187500.02235174447, -0.048, 0.924, 0.342, 192.0, 0.0, 0.0, 0.0, 0.0, 0.0, 0.0, 0.0, 0.0, 0.0, 1.770498140595585E9, 0.0, 2026-02-07 15:02:20.595
72.0, -187117.8745767921, -57735.85232923655, -187500.02235174447, -187500.02235174447, -32791.4396275806, 6896.027254584701, -106842.74665626844, -11303.254819304326, -83716.53660732944, -187500.02235174447, -187500.02235174447, -176469.4588147949, -137915.5606526805, -13257.19961609836, 4339.591185997866, -187500.02235174447, -0.048, 0.924, 0.342, 192.0, 0.0, 0.0, 0.0, 0.0, 0.0, 0.0, 0.0, 0.0, 0.0, 1.770498140602712E9, 0.0, 2026-02-07 15:02:20.602
74.0, -187165.1261645706, -57693.94280838285, -187500.02235174447, -187500.02235174447, -32787.01398217845, 6896.228420284799, -106839.28213587787, -11292.101298821128, -83706.79124674693, -187500.02235174447, -187500.02235174447, -176427.68340440793, -137898.68508561671, -13225.750711649742, 4339.1441511087605, -187500.02235174447, -0.048, 0.924, 0.342, 192.0, 0.0, 0.0, 0.0, 0.0, 0.0, 0.0, 0.0, 0.0, 0.0, 1.770498140610791E9, 0.0, 2026-02-07 15:02:20.610
76.0, -187184.30396131324, -57666.38310746945, -187500.02235174447, -187500.02235174447, -32783.21418562105, 6894.1273563059995, -106837.717513766, -11283.674691161477, -83713.36265961679, -187500.02235174447, -187500.02235174447, -176395.16161622544, -137885.96694302166, -13202.214324738303, 4338.294784819458, -187500.02235174447, -0.048, 0.924, 0.342, 192.0, 0.0, 0.0, 0.0, 0.0, 0.0, 0.0, 0.0, 0.0, 0.0, 1.770498140618879E9, 0.0, 2026-02-07 15:02:20.618
78.0, -187205.04638016777, -57647.74175259373, -187500.02235174447, -187500.02235174447, -32781.09076989779, 6893.635617927983, -106837.94103121055, -11278.533789936757, -83720.26934865348, -187500.02235174447, -187500.02235174447, -176365.81377575564, -137875.48397487213, -13184.332929174057, 4335.277299317992, -187500.02235174447, -0.044, 0.924, 0.336, 192.0, 127.0, 80.0, 14.0, 112.0, 5.0, 64.0, 0.0, 0.0, 0.0, 1.770498140626832E9, 0.0, 2026-02-07 15:02:20.626
80.0, -187217.58570880722, -57626.26172617218, -187500.02235174447, -187500.02235174447, -32780.6884384976, 6894.909667361935, -106840.37737135618, -11276.745650380331, -83716.53660732944, -187500.02235174447, -187500.02235174447, -176344.66902550092, -137871.5947713369, -13175.28047266966, 4337.1548458522375, -187500.02235174447, -0.044, 0.924, 0.336, 192.0, 0.0, 0.0, 0.0, 0.0, 0.0, 0.0, 0.0, 0.0, 0.0, 1.77049814063494E9, 0.0, 2026-02-07 15:02:20.634
82.0, -187240.9879852519, -57596.0421676686, -187500.02235174447, -187500.02235174447, -32775.99457216198, 6893.74737665026, -106839.75152251143, -11272.23059800036, -83699.6610402657, -187500.02235174447, -187500.02235174447, -176318.1598565769, -137862.22939041012, -13162.092943441028, 4336.685459218676, -187500.02235174447, -0.044, 0.924, 0.336, 192.0, 0.0, 0.0, 0.0, 0.0, 0.0, 0.0, 0.0, 0.0, 0.0, 1.77049814064291E9, 0.0, 2026-02-07 15:02:20.642
84.0, -187261.77510759534, -57569.4882952557, -187500.02235174447, -187500.02235174447, -32775.547537272876, 6893.859135372536, -106841.18203415658, -11272.23059800036, -83684.90888892519, -187500.02235174447, -187500.02235174447, -176292.96944057578, -137851.0982216714, -13152.07936192505, 4336.171369096204, -187500.02235174447, -0.044, 0.924, 0.336, 192.0, 0.0, 0.0, 0.0, 0.0, 0.0, 0.0, 0.0, 0.0, 0.0, 1.77049814065094E9, 0.0, 2026-02-07 15:02:20.650
86.0, -187270.13466002163, -57545.035486821595, -187500.02235174447, -187500.02235174447, -32773.513528527445, 6892.674492916405, -106839.28213587787, -11269.771906110276, -83669.28501955092, -187500.02235174447, -187500.02235174447, -176266.99671351872, -137838.6259482653, -13139.987068174729, 4334.025601628495, -187500.02235174447, -0.044, 0.924, 0.336, 192.0, 0.0, 0.0, 0.0, 0.0, 0.0, 0.0, 0.0, 0.0, 0.0, 1.770498140657938E9, 0.0, 2026-02-07 15:02:20.657
88.0, -187296.710884179, -57530.55155641455, -187500.02235174447, -187500.02235174447, -32776.21808960653, 6894.909667361935, -106842.38902835715, -11270.911845077497, -83657.997388601, -187500.02235174447, -187500.02235174447, -176248.6459313209, -137830.91459642825, -13133.683876238332, 4336.752514452042, -187500.02235174447, -0.04, 0.918, 0.336, 192.0, 127.0, 96.0, 14.0, 88.0, 5.0, 64.0, 0.0, 0.0, 0.0, 1.770498140666892E9, 0.0, 2026-02-07 15:02:20.666
90.0, -187299.706017936, -57515.888812051875, -187500.02235174447, -187500.02235174447, -32772.9323831716, 6892.585085938584, -106842.14315916815, -11268.006118298306, -83647.96145534057, -187500.02235174447, -187500.02235174447, -176227.03179443264, -137819.2246340781, -13124.653771478388, 4334.9196714067075, -187500.02235174447, -0.04, 0.918, 0.336, 192.0, 0.0, 0.0, 0.0, 0.0, 0.0, 0.0, 0.0, 0.0, 0.0, 1.770498140675033E9, 0.0, 2026-02-07 15:02:20.675
92.0, -187301.58356447026, -57509.96559977122, -187500.02235174447, -187500.02235174447, -32773.42412154962, 6892.115699305022, -106845.20534815853, -11269.414278198992, -83647.62617917373, -187500.02235174447, -187500.02235174447, -176208.77041921264, -137807.78054091698, -13121.993913888207, 4333.600918483844, -187500.02235174447, -0.04, 0.918, 0.336, 192.0, 0.0, 0.0, 0.0, 0.0, 0.0, 0.0, 0.0, 0.0, 0.0, 1.770498140681943E9, 0.0, 2026-02-07 15:02:20.681
94.0, -187288.88777361964, -57508.02099800361, -187500.02235174447, -187500.02235174447, -32775.94986867307, 6892.942713849869, -106849.04984820484, -11271.18006601096, -83654.35405425479, -187500.02235174447, -187500.02235174447, -176193.7500469387, -137800.31505826893, -13125.88311742343, 4334.897319662252, -187500.02235174447, -0.04, 0.918, 0.336, 192.0, 0.0, 0.0, 0.0, 0.0, 0.0, 0.0, 0.0, 0.0, 0.0, 1.770498140690016E9, 0.0, 2026-02-07 15:02:20.690
96.0, -187285.13268055115, -57511.28435269408, -187500.02235174447, -187500.02235174447, -32777.648601251676, 6891.4227952269075, -106851.50854009492, -11273.23642650085, -83658.26560953446, -187500.02235174447, -187500.02235174447, -176177.81325314206, -137793.40836923223, -13132.32041982656, 4333.936194650673, -187500.02235174447, -0.04, 0.918, 0.336, 192.0, 0.0, 0.0, 0.0, 0.0, 0.0, 0.0, 0.0, 0.0, 0.0, 1.77049814069907E9, 0.0, 2026-02-07 15:02:20.699
98.0, -187268.1006512762, -57522.728445855195, -187500.02235174447, -187500.02235174447, -32783.504758298965, 6894.753205150749, -106860.2257204325, -11280.277226004271, -83663.78649041492, -187500.02235174447, -187500.02235174447, -176166.6820844033, -137790.30147675294, -13140.143530385916, 4334.9196714067075, -187500.02235174447, -0.038, 0.926, 0.34400000000000003, 192.0, 127.0, 104.0, 14.0, 120.0, 5.0, 96.0, 0.0, 0.0, 0.0, 1.770498140706031E9, 0.0, 2026-02-07 15:02:20.706
100.0, -187241.189150952, -57535.044257050075, -187500.02235174447, -187500.02235174447, -32785.91874670014, 6894.015597583723, -106867.95942401403, -11286.7145284074, -83679.83504293383, -187500.02235174447, -187500.02235174447, -176159.84245059997, -137791.03908431996, -13147.452550822802, 4338.250081330548, -187500.02235174447, -0.038, 0.926, 0.34400000000000003, 192.0, 0.0, 0.0, 0.0, 0.0, 0.0, 0.0, 0.0, 0.0, 0.0, 1.770498140714153E9, 0.0, 2026-02-07 15:02:20.714
102.0, -187213.74120876088, -57546.354239744454, -187500.02235174447, -187500.02235174447, -32789.27150836844, 6893.881487116992, -106875.24609270647, -11295.632874445066, -83702.72322925607, -187500.02235174447, -187500.02235174447, -176150.61118013994, -137790.83791861986, -13155.543882315622, 4336.9760318965955, -187500.02235174447, -0.038, 0.926, 0.34400000000000003, 192.0, 0.0, 0.0, 0.0, 0.0, 0.0, 0.0, 0.0, 0.0, 0.0, 1.770498140723117E9, 0.0, 2026-02-07 15:02:20.723
104.0, -187165.64025469308, -57558.5359404726, -187500.02235174447, -187500.02235174447, -32791.685496769605, 6892.495678960762, -106881.25871196494, -11305.177069327483, -83727.66777606819, -187500.02235174447, -187500.02235174447, -176143.57038063652, -137795.48708146656, -13169.804295278109, 4337.847749930353, -187500.02235174447, -0.038, 0.926, 0.34400000000000003, 192.0, 0.0, 0.0, 0.0, 0.0, 0.0, 0.0, 0.0, 0.0, 0.0, 1.770498140732114E9, 0.0, 2026-02-07 15:02:20.732
106.0, -187129.0728007642, -57570.069440611536, -187500.02235174447, -187500.02235174447, -32794.45711308207, 6891.802774882648, -106887.89718006816, -11313.916601409508, -83744.49863964303, -187500.02235174447, -187500.02235174447, -176135.70256658824, -137797.34227625636, -13184.13176347396, 4335.947851651651, -187500.02235174447, -0.038, 0.926, 0.34400000000000003, 192.0, 0.0, 0.0, 0.0, 0.0, 0.0, 0.0, 0.0, 0.0, 0.0, 1.770498140739165E9, 0.0, 2026-02-07 15:02:20.739
108.0, -187095.2546114033, -57589.15783037637, -187500.02235174447, -187500.02235174447, -32801.05087769638, 6895.535516206684, -106899.38597671819, -11329.00402891684, -83759.58606715036, -187500.02235174447, -187500.02235174447, -176133.55679912053, -137803.46665423713, -13201.94610380484, 4340.060572631428, -187500.02235174447, -0.04, 0.924, 0.34, 192.0, 127.0, 88.0, 14.0, 104.0, 5.0, 64.0, 0.0, 0.0, 0.0, 1.770498140746154E9, 0.0, 2026-02-07 15:02:20.746
110.0, -187063.71629997686, -57603.17237414985, -187500.02235174447, -187500.02235174447, -32803.17429341964, 6894.306170261642, -106904.6833401541, -11341.699819767455, -83770.11373878882, -187500.02235174447, -187500.02235174447, -176129.95816826323, -137804.65129669325, -13216.765310378709, 4341.133456365283, -187500.02235174447, -0.04, 0.924, 0.34, 192.0, 0.0, 0.0, 0.0, 0.0, 0.0, 0.0, 0.0, 0.0, 0.0, 1.770498140755243E9, 0.0, 2026-02-07 15:02:20.755
112.0, -187019.05751455517, -57620.42792086935, -187500.02235174447, -187500.02235174447, -32806.236482410015, 6893.054472572145, -106910.85242162377, -11352.29454663927, -83774.80760512443, -187500.02235174447, -187500.02235174447, -176123.4761623712, -137801.18677630267, -13225.169566293904, 4340.462904031623, -187500.02235174447, -0.04, 0.924, 0.34, 192.0, 0.0, 0.0, 0.0, 0.0, 0.0, 0.0, 0.0, 0.0, 0.0, 1.770498140762218E9, 0.0, 2026-02-07 15:02:20.762
114.0, -186980.41134839194, -57638.7563513227, -187500.02235174447, -187500.02235174447, -32809.56689233385, 6891.691016160371, -106917.87086938274, -11361.682279310498, -83781.89310811677, -187500.02235174447, -187500.02235174447, -176119.9669384917, -137800.38211350227, -13235.160796065426, 4340.887587176274, -187500.02235174447, -0.04, 0.924, 0.34, 192.0, 0.0, 0.0, 0.0, 0.0, 0.0, 0.0, 0.0, 0.0, 0.0, 1.770498140770142E9, 0.0, 2026-02-07 15:02:20.770
116.0, -186938.30066183815, -57661.42102020038, -187500.02235174447, -187500.02235174447, -32813.05376446888, 6890.3052080041425, -106925.492814242, -11372.232302693405, -83783.01069533953, -187500.02235174447, -187500.02235174447, -176113.59669132193, -137793.38601748776, -13241.441636257368, 4338.317136563914, -187500.02235174447, -0.04, 0.924, 0.34, 192.0, 0.0, 0.0, 0.0, 0.0, 0.0, 0.0, 0.0, 0.0, 0.0, 1.77049814077822E9, 0.0, 2026-02-07 15:02:20.778
118.0, -186890.62439091498, -57684.53272396717, -187500.02235174447, -187500.02235174447, -32818.50759011598, 6888.785289381181, -106933.51709050145, -11385.017500521839, -83789.69386693167, -187500.02235174447, -187500.02235174447, -176113.35082213292, -137791.55317444244, -13250.874072417508, 4338.942985408662, -187500.02235174447, -0.04, 0.921, 0.34, 192.0, 127.0, 96.0, 14.0, 88.0, 5.0, 80.0, 0.0, 0.0, 0.0, 1.770498140786226E9, 0.0, 2026-02-07 15:02:20.786
120.0, -186847.28435841613, -57711.55598301363, -187500.02235174447, -187500.02235174447, -32827.22477045355, 6889.724062648304, -106944.2906313289, -11400.06022454026, -83788.84450064237, -187500.02235174447, -187500.02235174447, -176110.80272326502, -137792.51429945402, -13259.233624843791, 4338.76417145302, -187500.02235174447, -0.04, 0.921, 0.34, 192.0, 0.0, 0.0, 0.0, 0.0, 0.0, 0.0, 0.0, 0.0, 0.0, 1.770498140794385E9, 0.0, 2026-02-07 15:02:20.794
122.0, -186804.21254685076, -57737.43930309288, -187500.02235174447, -187500.02235174447, -32836.567799635865, 6890.819298126615, -106955.86883495675, -11414.924134603041, -83793.2254425556, -187500.02235174447, -187500.02235174447, -176112.2779383991, -137801.54440421396, -13273.896369206474, 4341.356973809836, -187500.02235174447, -0.04, 0.921, 0.34, 192.0, 0.0, 0.0, 0.0, 0.0, 0.0, 0.0, 0.0, 0.0, 0.0, 1.770498140802268E9, 0.0, 2026-02-07 15:02:20.802
124.0, -186752.1329822699, -57761.24391093778, -187500.02235174447, -187500.02235174447, -32841.038148526924, 6888.070033558612, -106961.41206758167, -11423.127224818138, -83799.21571006962, -187500.02235174447, -187500.02235174447, -176106.57824356298, -137807.02058160552, -13280.981872198805, 4340.060572631428, -187500.02235174447, -0.04, 0.921, 0.34, 192.0, 0.0, 0.0, 0.0, 0.0, 0.0, 0.0, 0.0, 0.0, 0.0, 1.770498140810435E9, 0.0, 2026-02-07 15:02:20.810
126.0, -186709.44115036025, -57788.13305951752, -187500.02235174447, -187500.02235174447, -32848.61538989728, 6888.360606236531, -106972.09620143131, -11434.079579601239, -83806.2788613175, -187500.02235174447, -187500.02235174447, -176107.09233368546, -137810.50745374055, -13289.207314158359, 4340.753476709542, -187500.02235174447, -0.04, 0.921, 0.34, 192.0, 0.0, 0.0, 0.0, 0.0, 0.0, 0.0, 0.0, 0.0, 0.0, 1.770498140817413E9, 0.0, 2026-02-07 15:02:20.817
128.0, -186659.01561486907, -57808.450795227385, -187500.02235174447, -187500.02235174447, -32851.543468420925, 6885.477231201796, -106976.52184683345, -11443.243794827915, -83813.45377128766, -187500.02235174447, -187500.02235174447, -176104.92421447329, -137812.65322120825, -13299.936151496906, 4339.501779020045, -187500.02235174447, -0.041, 0.9225000000000001, 0.339, 192.0, 127.0, 88.0, 14.0, 112.0, 5.0, 72.0, 0.0, 0.0, 0.0, 1.770498140826434E9, 0.0, 2026-02-07 15:02:20.826
130.0, -186615.3850096923, -57828.88028965954, -187500.02235174447, -187500.02235174447, -32858.114881290785, 6884.963141079324, -106982.62387306975, -11453.860873444186, -83819.1311143793, -187500.02235174447, -187500.02235174447, -176103.49370282816, -137819.71637245614, -13314.4424336484, 4338.652412730743, -187500.02235174447, -0.041, 0.9225000000000001, 0.339, 192.0, 0.0, 0.0, 0.0, 0.0, 0.0, 0.0, 0.0, 0.0, 0.0, 1.770498140834506E9, 0.0, 2026-02-07 15:02:20.834
132.0, -186569.16160215874, -57845.46528404538, -187500.02235174447, -187500.02235174447, -32863.903983104705, 6884.627864912494, -106987.72007080556, -11462.488646803933, -83822.77444872553, -187500.02235174447, -187500.02235174447, -176101.34793536045, -137825.3713638033, -13330.803910589686, 4339.211206342126, -187500.02235174447, -0.041, 0.9225000000000001, 0.339, 192.0, 0.0, 0.0, 0.0, 0.0, 0.0, 0.0, 0.0, 0.0, 0.0, 1.770498140841569E9, 0.0, 2026-02-07 15:02:20.841
134.0, -186532.9294243967, -57857.334060351146, -187500.02235174447, -187500.02235174447, -32867.614372684286, 6882.035062555678, -106994.87262903126, -11468.367155595679, -83820.36046032434, -187500.02235174447, -187500.02235174447, -176096.6093655359, -137823.80674169146, -13347.5006636978, 4338.04891563045, -187500.02235174447, -0.041, 0.9225000000000001, 0.339, 192.0, 0.0, 0.0, 0.0, 0.0, 0.0, 0.0, 0.0, 0.0, 0.0, 1.770498140849539E9, 0.0, 2026-02-07 15:02:20.849
136.0, -186501.6816856482, -57867.88408373405, -187500.02235174447, -187500.02235174447, -32873.04584658692, 6882.929132333891, -107001.64520760122, -11474.782106254353, -83822.86385570334, -187500.02235174447, -187500.02235174447, -176089.25564161013, -137824.00790739155, -13361.269338282269, 4337.467770274612, -187500.02235174447, -0.041, 0.9225000000000001, 0.339, 192.0, 0.0, 0.0, 0.0, 0.0, 0.0, 0.0, 0.0, 0.0, 0.0, 1.770498140858506E9, 0.0, 2026-02-07 15:02:20.858
138.0, -186477.54180163646, -57877.40592687201, -187500.02235174447, -187500.02235174447, -32877.829119900365, 6883.242056756265, -107008.97657978257, -11480.817077257285, -83828.27297786153, -187500.02235174447, -187500.02235174447, -176083.98062991866, -137827.9194626712, -13373.965129132883, 4340.127627864794, -187500.02235174447, -0.0405, 0.92225, 0.3395, 192.0, 127.0, 96.0, 14.0, 104.0, 5.0, 80.0, 0.0, 0.0, 0.0, 1.770498140866652E9, 0.0, 2026-02-07 15:02:20.866
140.0, -186455.43592637015, -57883.35149089712, -187500.02235174447, -187500.02235174447, -32880.17605306817, 6882.727966633794, -107013.73750135154, -11483.879266247663, -83825.0319749155, -187500.02235174447, -187500.02235174447, -176072.78240594655, -137826.6230614928, -13377.340242545635, 4338.697116219654, -187500.02235174447, -0.0405, 0.92225, 0.3395, 192.0, 0.0, 0.0, 0.0, 0.0, 0.0, 0.0, 0.0, 0.0, 0.0, 1.770498140873649E9, 0.0, 2026-02-07 15:02:20.873
142.0, -186433.93354820414, -57890.14642121154, -187500.02235174447, -187500.02235174447, -32883.14883508073, 6881.744489877759, -107018.31960896488, -11487.813173271797, -83820.785143469, -187500.02235174447, -187500.02235174447, -176062.7688244306, -137824.74551495857, -13381.520018758776, 4339.680592975687, -187500.02235174447, -0.0405, 0.92225, 0.3395, 192.0, 0.0, 0.0, 0.0, 0.0, 0.0, 0.0, 0.0, 0.0, 0.0, 1.770498140881712E9, 0.0, 2026-02-07 15:02:20.881
144.0, -186423.76350447698, -57897.79071781525, -187500.02235174447, -187500.02235174447, -32889.04969561693, 6883.510277689729, -107024.1087107788, -11493.736385552453, -83806.2788613175, -187500.02235174447, -187500.02235174447, -176051.23532429163, -137821.8844916683, -13384.626911238065, 4339.412372042224, -187500.02235174447, -0.0405, 0.92225, 0.3395, 192.0, 0.0, 0.0, 0.0, 0.0, 0.0, 0.0, 0.0, 0.0, 0.0, 1.77049814089071E9, 0.0, 2026-02-07 15:02:20.890
146.0, -186406.95499264658, -57899.64591260504, -187500.02235174447, -187500.02235174447, -32890.681372962164, 6881.02923405519, -107026.63445790226, -11494.27282741938, -83801.89791940426, -187500.02235174447, -187500.02235174447, -176039.7912311305, -137822.91267191325, -13393.12057413108, 4340.395848798257, -187500.02235174447, -0.0405, 0.92225, 0.3395, 192.0, 0.0, 0.0, 0.0, 0.0, 0.0, 0.0, 0.0, 0.0, 0.0, 1.77049814089773E9, 0.0, 2026-02-07 15:02:20.897
148.0, -186386.48079472553, -57903.959799284916, -187500.02235174447, -187500.02235174447, -32894.48116951957, 6880.939827077369, -107031.32832423787, -11495.74804255343, -83796.06411410143, -187500.02235174447, -187500.02235174447, -176022.11100126637, -137819.31404105594, -13390.416013051989, 4338.272433075003, -187500.02235174447, -0.04025, 0.921125, 0.33975, 192.0, 127.0, 96.0, 14.0, 96.0, 5.0, 80.0, 0.0, 0.0, 0.0, 1.770498140905748E9, 0.0, 2026-02-07 15:02:20.905
150.0, -186378.61298067725, -57908.69836910944, -187500.02235174447, -187500.02235174447, -32902.281928334465, 6883.510277689729, -107038.39147548574, -11500.397205400135, -83794.18656756719, -187500.02235174447, -187500.02235174447, -176011.91860579475, -137817.5259014995, -13389.03020489576, 4340.597014498355, -187500.02235174447, -0.04025, 0.921125, 0.33975, 192.0, 0.0, 0.0, 0.0, 0.0, 0.0, 0.0, 0.0, 0.0, 0.0, 1.770498140914749E9, 0.0, 2026-02-07 15:02:20.914
152.0, -186375.8413643648, -57903.44570916244, -187500.02235174447, -187500.02235174447, -32902.706611479116, 6881.789193366671, -107037.51975745198, -11497.379719898669, -83782.34014300587, -187500.02235174447, -187500.02235174447, -175996.96528875415, -137817.01181137704, -13393.567609020187, 4340.507607520533, -187500.02235174447, -0.04025, 0.921125, 0.33975, 192.0, 0.0, 0.0, 0.0, 0.0, 0.0, 0.0, 0.0, 0.0, 0.0, 1.770498140921846E9, 0.0, 2026-02-07 15:02:20.921
154.0, -186375.5954951758, -57899.42239516049, -187500.02235174447, -187500.02235174447, -32902.32663182338, 6881.632731155483, -107038.25736501902, -11496.709167565008, -83762.55884916292, -187500.02235174447, -187500.02235174447, -175980.8943844908, -137808.40638976175, -13398.283827100257, 4340.395848798257, -187500.02235174447, -0.04025, 0.921125, 0.33975, 192.0, 0.0, 0.0, 0.0, 0.0, 0.0, 0.0, 0.0, 0.0, 0.0, 1.770498140929783E9, 0.0, 2026-02-07 15:02:20.929
156.0, -186376.91424809865, -57888.7606130553, -187500.02235174447, -187500.02235174447, -32900.02440214448, 6880.001053810246, -107037.29624000743, -11493.46816461899, -83742.21876170859, -187500.02235174447, -187500.02235174447, -175963.25885811556, -137793.16250004323, -13404.072928914182, 4338.697116219654, -187500.02235174447, -0.04025, 0.921125, 0.33975, 192.0, 0.0, 0.0, 0.0, 0.0, 0.0, 0.0, 0.0, 0.0, 0.0, 1.770498140937847E9, 0.0, 2026-02-07 15:02:20.937
158.0, -186386.50314646997, -57879.73050829536, -187500.02235174447, -187500.02235174447, -32900.58319575586, 6880.716309632816, -107038.54793769693, -11491.210638429004, -83721.67750855417, -187500.02235174447, -187500.02235174447, -175946.09271837387, -137774.90112482323, -13413.192440651947, 4338.80887494193, -187500.02235174447, -0.04025, 0.921125, 0.33975, 192.0, 0.0, 0.0, 0.0, 0.0, 0.0, 0.0, 0.0, 0.0, 0.0, 1.770498140945903E9, 0.0, 2026-02-07 15:02:20.945
160.0, -186386.65960868116, -57864.41956334348, -187500.02235174447, -187500.02235174447, -32900.672602733684, 6878.727004376293, -107038.48088246357, -11487.433193616056, -83702.8573397228, -187500.02235174447, -187500.02235174447, -175925.774982664, -137758.24907520405, -13418.400397110034, 4337.288956318969, -187500.02235174447, -0.046, 0.922, 0.34600000000000003, 192.0, 127.0, 72.0, 14.0, 104.0, 5.0, 104.0, 0.0, 0.0, 0.0, 1.770498140953948E9, 0.0, 2026-02-07 15:02:20.953
162.0, -186393.1416145732, -57852.081400404146, -187500.02235174447, -187500.02235174447, -32902.55014926793, 6878.548190420651, -107039.77728364198, -11485.600350570721, -83685.33357206984, -187500.02235174447, -187500.02235174447, -175905.9266335877, -137746.44735413164, -13420.255591899824, 4337.601880741344, -187500.02235174447, -0.046, 0.922, 0.34600000000000003, 192.0, 0.0, 0.0, 0.0, 0.0, 0.0, 0.0, 0.0, 0.0, 0.0, 1.77049814096198E9, 0.0, 2026-02-07 15:02:20.961
164.0, -186398.3942745202, -57838.513891519775, -187500.02235174447, -187500.02235174447, -32901.65607948972, 6877.520010175706, -107040.17961504217, -11484.37100462568, -83668.07802535035, -187500.02235174447, -187500.02235174447, -175885.765360089, -137737.21608367158, -13422.55782157872, 4336.081962118383, -187500.02235174447, -0.046, 0.922, 0.34600000000000003, 192.0, 0.0, 0.0, 0.0, 0.0, 0.0, 0.0, 0.0, 0.0, 0.0, 1.770498140970911E9, 0.0, 2026-02-07 15:02:20.970
166.0, -186411.8500246823, -57825.996914624804, -187500.02235174447, -187500.02235174447, -32902.17016961219, 6879.241094498765, -107041.87834762078, -11485.309777892802, -83653.1470600542, -187500.02235174447, -187500.02235174447, -175864.48649936754, -137729.52708357896, -13426.156452436026, 4336.0372586294725, -187500.02235174447, -0.046, 0.922, 0.34600000000000003, 192.0, 0.0, 0.0, 0.0, 0.0, 0.0, 0.0, 0.0, 0.0, 0.0, 1.770498140977049E9, 0.0, 2026-02-07 15:02:20.977
168.0, -186424.7022777441, -57806.282676015224, -187500.02235174447, -187500.02235174447, -32899.95734691111, 6877.631768897983, -107039.88904236426, -11482.784030769353, -83636.33854822381, -187500.02235174447, -187500.02235174447, -175843.27469387947, -137723.26859513146, -13426.670542558497, 4336.640755729765, -187500.02235174447, -0.046, 0.922, 0.34600000000000003, 192.0, 0.0, 0.0, 0.0, 0.0, 0.0, 0.0, 0.0, 0.0, 0.0, 1.770498140986018E9, 0.0, 2026-02-07 15:02:20.986
170.0, -186440.23674014054, -57793.27396074223, -187500.02235174447, -187500.02235174447, -32900.15851261121, 6878.279969487187, -107039.59846968633, -11481.040594701839, -83613.87504504622, -187500.02235174447, -187500.02235174447, -175818.37485055625, -137715.33372584984, -13421.015551211305, 4335.299651062447, -187500.02235174447, -0.05, 0.918, 0.34800000000000003, 192.0, 127.0, 56.0, 14.0, 88.0, 5.0, 112.0, 0.0, 0.0, 0.0, 1.770498140994066E9, 0.0, 2026-02-07 15:02:20.994
172.0, -186452.41844086867, -57782.67923387042, -187500.02235174447, -187500.02235174447, -32902.46074229011, 6880.179867765888, -107041.72188540958, -11478.201923156015, -83598.76526579443, -187500.02235174447, -187500.02235174447, -175798.9958881135, -137712.38329558173, -13418.13217617657, 4336.864273174318, -187500.02235174447, -0.05, 0.918, 0.34800000000000003, 192.0, 0.0, 0.0, 0.0, 0.0, 0.0, 0.0, 0.0, 0.0, 0.0, 1.770498141001114E9, 0.0, 2026-02-07 15:02:21.001
174.0, -186465.09187997485, -57768.55293137467, -187500.02235174447, -187500.02235174447, -32897.78922769895, 6877.251789242243, -107037.47505396308, -11473.172780653571, -83581.08503593029, -187500.02235174447, -187500.02235174447, -175777.15823378068, -137706.0577519009, -13413.03597844076, 4337.110142363327, -187500.02235174447, -0.05, 0.918, 0.34800000000000003, 192.0, 0.0, 0.0, 0.0, 0.0, 0.0, 0.0, 0.0, 0.0, 0.0, 1.770498141009168E9, 0.0, 2026-02-07 15:02:21.009
176.0, -186479.97814178208, -57756.90767251345, -187500.02235174447, -187500.02235174447, -32895.35288755332, 6876.3353677195755, -107036.5139289515, -11469.395335840623, -83557.79451820785, -187500.02235174447, -187500.02235174447, -175752.50425964646, -137687.1928795806, -13405.03405392576, 4333.310345805925, -187500.02235174447, -0.05, 0.918, 0.34800000000000003, 192.0, 0.0, 0.0, 0.0, 0.0, 0.0, 0.0, 0.0, 0.0, 0.0, 1.770498141018151E9, 0.0, 2026-02-07 15:02:21.018
178.0, -186496.13845302328, -57748.391657875974, -187500.02235174447, -187500.02235174447, -32895.866977675796, 6878.615245654017, -107037.78797838546, -11467.763658495387, -83549.1667448481, -187500.02235174447, -187500.02235174447, -175731.51597160293, -137673.46890848505, -13401.480126557366, 4334.651450473243, -187500.02235174447, -0.05, 0.918, 0.34800000000000003, 192.0, 0.0, 0.0, 0.0, 0.0, 0.0, 0.0, 0.0, 0.0, 0.0, 1.770498141026072E9, 0.0, 2026-02-07 15:02:21.026
180.0, -186504.8779851053, -57737.640468792975, -187500.02235174447, -187500.02235174447, -32894.36941079729, 6877.609417153528, -107037.45270221862, -11464.165027638082, -83551.223105338, -187500.02235174447, -187500.02235174447, -175711.80173299334, -137664.81878338085, -13398.864972456095, 4336.104313862838, -187500.02235174447, -0.042, 0.918, 0.34400000000000003, 192.0, 127.0, 88.0, 14.0, 88.0, 5.0, 96.0, 0.0, 0.0, 0.0, 1.770498141033383E9, 0.0, 2026-02-07 15:02:21.033
182.0, -186524.25694754804, -57725.86109946503, -187500.02235174447, -187500.02235174447, -32892.08953286285, 6877.095327031056, -107036.58098418487, -11459.001774668906, -83543.64586396764, -187500.02235174447, -187500.02235174447, -175687.28186932587, -137652.48062044152, -13390.058385140705, 4333.645621972754, -187500.02235174447, -0.042, 0.918, 0.34400000000000003, 192.0, 0.0, 0.0, 0.0, 0.0, 0.0, 0.0, 0.0, 0.0, 0.0, 1.770498141042134E9, 0.0, 2026-02-07 15:02:21.042
184.0, -186533.04118311897, -57718.59678251705, -187500.02235174447, -187500.02235174447, -32893.52004450799, 6878.369376465008, -107039.21849003059, -11457.683021746043, -83535.26395979691, -187500.02235174447, -187500.02235174447, -175666.964133616, -137643.56227440384, -13382.950530403916, 4334.204415584137, -187500.02235174447, -0.042, 0.918, 0.34400000000000003, 192.0, 0.0, 0.0, 0.0, 0.0, 0.0, 0.0, 0.0, 0.0, 0.0, 1.770498141050153E9, 0.0, 2026-02-07 15:02:21.050
186.0, -186540.59607274487, -57711.75714871373, -187500.02235174447, -187500.02235174447, -32893.5647479969, 6878.481135187285, -107039.53141445297, -11455.760771722886, -83531.64297719515, -187500.02235174447, -187500.02235174447, -175648.50159269592, -137639.06957376833, -13375.865027411584, 4335.903148162741, -187500.02235174447, -0.042, 0.918, 0.34400000000000003, 192.0, 0.0, 0.0, 0.0, 0.0, 0.0, 0.0, 0.0, 0.0, 0.0, 1.770498141057213E9, 0.0, 2026-02-07 15:02:21.057
188.0, -186537.26566282104, -57708.94082891236, -187500.02235174447, -187500.02235174447, -32893.65415497472, 6877.832934598081, -107040.15726329772, -11454.084390888738, -83532.17941906207, -187500.02235174447, -187500.02235174447, -175629.23438897543, -137635.5827016333, -13368.444248252423, 4334.539691750967, -187500.02235174447, -0.042, 0.918, 0.34400000000000003, 192.0, 0.0, 0.0, 0.0, 0.0, 0.0, 0.0, 0.0, 0.0, 0.0, 1.770498141065161E9, 0.0, 2026-02-07 15:02:21.065
190.0, -186544.4852762801, -57705.00692188823, -187500.02235174447, -187500.02235174447, -32894.90585266422, 6880.537495677173, -107043.37591449928, -11454.039687399827, -83534.14637257413, -187500.02235174447, -187500.02235174447, -175613.02937424535, -137635.0909632553, -13365.158541817493, 4335.970203396107, -187500.02235174447, -0.038, 0.93, 0.342, 192.0, 127.0, 104.0, 14.5, 8.0, 5.0, 88.0, 0.0, 0.0, 0.0, 1.770498141074251E9, 0.0, 2026-02-07 15:02:21.074
192.0, -186548.8215147044, -57697.027349117685, -187500.02235174447, -187500.02235174447, -32897.07397187638, 6883.800850367648, -107046.84043488985, -11456.163103123083, -83530.50303822792, -187500.02235174447, -187500.02235174447, -175597.83018801574, -137633.3922306767, -13364.867969139574, 4339.568834253411, -187500.02235174447, -0.038, 0.93, 0.342, 192.0, 0.0, 0.0, 0.0, 0.0, 0.0, 0.0, 0.0, 0.0, 0.0, 1.770498141081228E9, 0.0, 2026-02-07 15:02:21.081
194.0, -186557.60575027537, -57681.04585183214, -187500.02235174447, -187500.02235174447, -32894.77174219749, 6883.018539311713, -107044.53820521095, -11453.011507154884, -83520.08712531175, -187500.02235174447, -187500.02235174447, -175579.52410930683, -137629.77124807492, -13362.4539807384, 4340.775828453998, -187500.02235174447, -0.038, 0.93, 0.342, 192.0, 0.0, 0.0, 0.0, 0.0, 0.0, 0.0, 0.0, 0.0, 0.0, 1.770498141089319E9, 0.0, 2026-02-07 15:02:21.089
196.0, -186562.791354989, -57668.81944761508, -187500.02235174447, -187500.02235174447, -32894.34705905284, 6883.912609089924, -107046.54986221193, -11453.056210643794, -83504.93264257106, -187500.02235174447, -187500.02235174447, -175558.60287649668, -137620.7187915705, -13358.900053370005, 4339.5241307645, -187500.02235174447, -0.038, 0.93, 0.342, 192.0, 0.0, 0.0, 0.0, 0.0, 0.0, 0.0, 0.0, 0.0, 0.0, 1.770498141097325E9, 0.0, 2026-02-07 15:02:21.097
198.0, -186568.20047714718, -57651.8097700846, -187500.02235174447, -187500.02235174447, -32890.72607645107, 6881.45391719984, -107045.5663854559, -11449.032896641838, -83492.84034882074, -187500.02235174447, -187500.02235174447, -175541.01205361035, -137613.74504730047, -13359.950585359406, 4340.9099389207295, -187500.02235174447, -0.038, 0.93, 0.342, 192.0, 0.0, 0.0, 0.0, 0.0, 0.0, 0.0, 0.0, 0.0, 0.0, 1.770498141106335E9, 0.0, 2026-02-07 15:02:21.106
200.0, -186562.00904393304, -57636.54352862162, -187500.02235174447, -187500.02235174447, -32885.093436848336, 6876.961216564324, -107043.10769356582, -11445.277803573348, -83475.98713350143, -187500.02235174447, -187500.02235174447, -175516.7827626208, -137602.90445123965, -13354.541463201222, 4335.836092929375, -187500.02235174447, -0.036000000000000004, 0.929, 0.343, 192.0, 127.0, 120.0, 14.5, 0.0, 5.0, 96.0, 0.0, 0.0, 0.0, 1.770498141113405E9, 0.0, 2026-02-07 15:02:21.113
202.0, -186564.7806602455, -57626.93227850584, -187500.02235174447, -187500.02235174447, -32885.27225080398, 6878.16821076491, -107045.74519941154, -11448.205882096992, -83470.15332819859, -187500.02235174447, -187500.02235174447, -175497.64966936703, -137599.66344829364, -13354.094428312115, 4334.4502847731455, -187500.02235174447, -0.036000000000000004, 0.929, 0.343, 192.0, 0.0, 0.0, 0.0, 0.0, 0.0, 0.0, 0.0, 0.0, 0.0, 1.770498141121324E9, 0.0, 2026-02-07 15:02:21.121
204.0, -186559.21507587613, -57619.1985749243, -187500.02235174447, -187500.02235174447, -32885.33930603735, 6877.788231109171, -107047.9133186237, -11451.759809465386, -83467.13584269713, -187500.02235174447, -187500.02235174447, -175479.7235703139, -137599.50698608244, -13354.675573667953, 4335.120837106805, -187500.02235174447, -0.036000000000000004, 0.929, 0.343, 192.0, 0.0, 0.0, 0.0, 0.0, 0.0, 0.0, 0.0, 0.0, 0.0, 1.770498141130449E9, 0.0, 2026-02-07 15:02:21.130
206.0, -186554.52120954051, -57610.83902249802, -187500.02235174447, -187500.02235174447, -32884.84756765933, 6876.804754353137, -107050.95315586963, -11455.291385089326, -83462.95606648398, -187500.02235174447, -187500.02235174447, -175463.00446546133, -137599.43993084907, -13355.033201579237, 4335.254947573537, -187500.02235174447, -0.036000000000000004, 0.929, 0.343, 192.0, 0.0, 0.0, 0.0, 0.0, 0.0, 0.0, 0.0, 0.0, 0.0, 1.770498141136421E9, 0.0, 2026-02-07 15:02:21.136
208.0, -186548.5756455154, -57606.703949773786, -187500.02235174447, -187500.02235174447, -32885.13814033725, 6875.59776015255, -107053.85888264881, -11460.275824102859, -83453.9483134685, -187500.02235174447, -187500.02235174447, -175444.7654419858, -137595.77424475842, -13353.312117256179, 4334.316174306414, -187500.02235174447, -0.036000000000000004, 0.929, 0.343, 192.0, 0.0, 0.0, 0.0, 0.0, 0.0, 0.0, 0.0, 0.0, 0.0, 1.77049814114541E9, 0.0, 2026-02-07 15:02:21.145
210.0, -186536.25983432055, -57603.37353984995, -187500.02235174447, -187500.02235174447, -32888.06621886089, 6875.59776015255, -107058.93272864017, -11466.310795105792, -83448.87446747714, -187500.02235174447, -187500.02235174447, -175428.3592615556, -137594.34373311326, -13355.12260855706, 4333.064476616916, -187500.02235174447, -0.034, 0.9255, 0.3425, 192.0, 127.5, 0.0, 14.0, 104.0, 5.0, 88.0, 0.0, 0.0, 0.0, 1.770498141153445E9, 0.0, 2026-02-07 15:02:21.153
212.0, -186523.72050568112, -57601.71951076025, -187500.02235174447, -187500.02235174447, -32890.03317237296, 6876.067146786112, -107063.38072578677, -11472.926911464563, -83446.3487203537, -187500.02235174447, -187500.02235174447, -175412.71304043688, -137595.03663719137, -13359.592957448122, 4333.466808017112, -187500.02235174447, -0.034, 0.9255, 0.3425, 192.0, 0.0, 0.0, 0.0, 0.0, 0.0, 0.0, 0.0, 0.0, 0.0, 1.770498141161595E9, 0.0, 2026-02-07 15:02:21.161
214.0, -186509.54949969644, -57602.39006309391, -187500.02235174447, -187500.02235174447, -32895.39759104223, 6879.017577054212, -107071.40500204623, -11483.968673225483, -83451.15434541159, -187500.02235174447, -187500.02235174447, -175401.62657518705, -137600.08813143827, -13369.74064943083, 4336.752514452042, -187500.02235174447, -0.034, 0.9255, 0.3425, 192.0, 0.0, 0.0, 0.0, 0.0, 0.0, 0.0, 0.0, 0.0, 0.0, 1.770498141169667E9, 0.0, 2026-02-07 15:02:21.169
216.0, -186491.33282796538, -57601.22777238223, -187500.02235174447, -187500.02235174447, -32897.29748932093, 6878.682300887383, -107074.82481894789, -11489.646016317132, -83452.38369135663, -187500.02235174447, -187500.02235174447, -175387.67908664694, -137604.42436986262, -13376.98261463435, 4337.870101674807, -187500.02235174447, -0.034, 0.9255, 0.3425, 192.0, 0.0, 0.0, 0.0, 0.0, 0.0, 0.0, 0.0, 0.0, 0.0, 1.770498141177593E9, 0.0, 2026-02-07 15:02:21.177
218.0, -186466.8129642979, -57600.28899911512, -187500.02235174447, -187500.02235174447, -32900.98552715606, 6878.928170076391, -107080.18923761717, -11497.983216998962, -83462.82195601726, -187500.02235174447, -187500.02235174447, -175375.72090336334, -137611.86750076624, -13388.024376395271, 4338.250081330548, -187500.02235174447, -0.034, 0.9255, 0.3425, 192.0, 0.0, 0.0, 0.0, 0.0, 0.0, 0.0, 0.0, 0.0, 0.0, 1.770498141185653E9, 0.0, 2026-02-07 15:02:21.185
220.0, -186439.83440874034, -57600.624275281945, -187500.02235174447, -187500.02235174447, -32905.09824813584, 6879.419908454408, -107084.70428999714, -11504.71109208001, -83497.62362213417, -187500.02235174447, -187500.02235174447, -175361.92987703442, -137623.64687009418, -13400.22842886787, 4339.792351697964, -187500.02235174447, -0.036000000000000004, 0.9257500000000001, 0.34325000000000006, 192.0, 127.0, 104.0, 14.0, 120.0, 5.0, 96.0, 0.0, 0.0, 0.0, 1.770498141192669E9, 0.0, 2026-02-07 15:02:21.192
222.0, -186413.8393299388, -57604.42407183935, -187500.02235174447, -187500.02235174447, -32911.62495751679, 6880.559847421629, -107092.01331043403, -11513.718845095498, -83520.13182880066, -187500.02235174447, -187500.02235174447, -175350.2846181732, -137631.7829050759, -13406.17399289298, 4340.060572631428, -187500.02235174447, -0.036000000000000004, 0.9257500000000001, 0.34325000000000006, 192.0, 0.0, 0.0, 0.0, 0.0, 0.0, 0.0, 0.0, 0.0, 0.0, 1.770498141201695E9, 0.0, 2026-02-07 15:02:21.201
224.0, -186383.21744003505, -57607.12863291844, -187500.02235174447, -187500.02235174447, -32913.837780217866, 6878.548190420651, -107092.9744354456, -11517.56334514181, -83560.02969265339, -187500.02235174447, -187500.02235174447, -175340.67336805744, -137635.06861151083, -13414.019455196794, 4342.340450565869, -187500.02235174447, -0.036000000000000004, 0.9257500000000001, 0.34325000000000006, 192.0, 0.0, 0.0, 0.0, 0.0, 0.0, 0.0, 0.0, 0.0, 0.0, 1.770498141209708E9, 0.0, 2026-02-07 15:02:21.209
226.0, -186346.0241372614, -57614.68352254433, -187500.02235174447, -187500.02235174447, -32917.3693558418, 6877.095327031056, -107094.53905755747, -11524.201813245036, -83615.37261192473, -187500.02235174447, -187500.02235174447, -175328.22344639583, -137634.50981789947, -13420.076777944181, 4339.546482508956, -187500.02235174447, -0.036000000000000004, 0.9257500000000001, 0.34325000000000006, 192.0, 0.0, 0.0, 0.0, 0.0, 0.0, 0.0, 0.0, 0.0, 0.0, 1.770498141216808E9, 0.0, 2026-02-07 15:02:21.216
228.0, -186319.33615438177, -57624.54064184912, -187500.02235174447, -187500.02235174447, -32923.38197510028, 6878.928170076391, -107098.67413028171, -11529.610935403221, -83655.71751066655, -187500.02235174447, -187500.02235174447, -175320.132114903, -137637.46024816757, -13432.347885650146, 4340.418200542713, -187500.02235174447, -0.036000000000000004, 0.9257500000000001, 0.34325000000000006, 192.0, 0.0, 0.0, 0.0, 0.0, 0.0, 0.0, 0.0, 0.0, 0.0, 1.770498141224971E9, 0.0, 2026-02-07 15:02:21.224
230.0, -186285.5626685098, -57631.02264774116, -187500.02235174447, -187500.02235174447, -32929.01461470302, 6878.347024720553, -107101.08811868288, -11531.264964492913, -83692.59788901781, -187500.02235174447, -187500.02235174447, -175314.45477181135, -137635.87327431122, -13451.23510971488, 4343.525093022, -187500.02235174447, -0.038000000000000006, 0.919875, 0.34262500000000007, 192.0, 127.0, 96.0, 14.0, 72.0, 5.0, 88.0, 0.0, 0.0, 0.0, 1.770498141233741E9, 0.0, 2026-02-07 15:02:21.233
232.0, -186260.59576995324, -57630.955592507795, -187500.02235174447, -187500.02235174447, -32931.62976880428, 6875.262483985721, -107099.0764616819, -11528.42629294709, -83717.63184280775, -187500.02235174447, -187500.02235174447, -175301.40135304944, -137627.84899805178, -13464.959080810439, 4340.865235431818, -187500.02235174447, -0.038000000000000006, 0.919875, 0.34262500000000007, 192.0, 0.0, 0.0, 0.0, 0.0, 0.0, 0.0, 0.0, 0.0, 0.0, 1.77049814124078E9, 0.0, 2026-02-07 15:02:21.240
234.0, -186241.0156418104, -57632.564918108576, -187500.02235174447, -187500.02235174447, -32936.88242875128, 6874.681338629883, -107100.66343553823, -11530.795577859351, -83726.2149126786, -187500.02235174447, -187500.02235174447, -175287.4762162538, -137623.87038753871, -13476.649043160563, 4339.658241231232, -187500.02235174447, -0.038000000000000006, 0.919875, 0.34262500000000007, 192.0, 0.0, 0.0, 0.0, 0.0, 0.0, 0.0, 0.0, 0.0, 0.0, 1.770498141248841E9, 0.0, 2026-02-07 15:02:21.248
236.0, -186233.8630835847, -57629.5027291182, -187500.02235174447, -187500.02235174447, -32941.26337066452, 6874.9272078188915, -107102.47392683911, -11535.467092450512, -83720.1128864423, -187500.02235174447, -187500.02235174447, -175274.69101842536, -137620.6293845927, -13483.846304875173, 4339.725296464598, -187500.02235174447, -0.038000000000000006, 0.919875, 0.34262500000000007, 192.0, 0.0, 0.0, 0.0, 0.0, 0.0, 0.0, 0.0, 0.0, 0.0, 1.770498141257002E9, 0.0, 2026-02-07 15:02:21.257
238.0, -186229.39273469363, -57624.85356627149, -187500.02235174447, -187500.02235174447, -32946.8736585228, 6876.737699119771, -107109.31356064243, -11544.318383254813, -83691.72617098405, -187500.02235174447, -187500.02235174447, -175262.64342816395, -137612.15807344415, -13486.394403743077, 4340.775828453998, -187500.02235174447, -0.038000000000000006, 0.919875, 0.34262500000000007, 192.0, 0.0, 0.0, 0.0, 0.0, 0.0, 0.0, 0.0, 0.0, 0.0, 1.770498141265836E9, 0.0, 2026-02-07 15:02:21.265
240.0, -186220.31792644478, -57628.720418062265, -187500.02235174447, -187500.02235174447, -32952.75216731455, 6876.782402608682, -107114.78973803399, -11549.392229246168, -83663.51826948146, -187500.02235174447, -187500.02235174447, -175252.02634954767, -137608.5817943313, -13487.266121776835, 4342.072229632406, -187500.02235174447, -0.041, 0.9199375000000001, 0.3433125, 192.0, 127.0, 80.0, 14.0, 96.0, 5.0, 96.0, 0.0, 0.0, 0.0, 1.770498141272886E9, 0.0, 2026-02-07 15:02:21.272
242.0, -186207.06334198278, -57635.18007220985, -187500.02235174447, -187500.02235174447, -32959.90472554025, 6876.715347375316, -107120.95881950365, -11556.18715956058, -83621.9887282835, -187500.02235174447, -187500.02235174447, -175244.0691285216, -137605.89958499666, -13487.601397943665, 4343.502741277545, -187500.02235174447, -0.041, 0.9199375000000001, 0.3433125, 192.0, 0.0, 0.0, 0.0, 0.0, 0.0, 0.0, 0.0, 0.0, 0.0, 1.770498141280887E9, 0.0, 2026-02-07 15:02:21.280
244.0, -186194.18873717653, -57636.0070867547, -187500.02235174447, -187500.02235174447, -32965.135033742794, 6874.860152585525, -107124.5350986165, -11561.082191596293, -83573.39603583766, -187500.02235174447, -187500.02235174447, -175232.17800047138, -137600.28929713837, -13484.941540353482, 4340.23938658707, -187500.02235174447, -0.041, 0.9199375000000001, 0.3433125, 192.0, 0.0, 0.0, 0.0, 0.0, 0.0, 0.0, 0.0, 0.0, 0.0, 1.770498141290014E9, 0.0, 2026-02-07 15:02:21.290
246.0, -186178.25194337987, -57639.069275745074, -187500.02235174447, -187500.02235174447, -32971.348818701365, 6873.474344429296, -107130.57006961944, -11566.401906776657, -83525.67506142559, -187500.02235174447, -187500.02235174447, -175222.63380558894, -137600.02107620492, -13484.941540353482, 4339.702944720143, -187500.02235174447, -0.041, 0.9199375000000001, 0.3433125, 192.0, 0.0, 0.0, 0.0, 0.0, 0.0, 0.0, 0.0, 0.0, 0.0, 1.770498141296024E9, 0.0, 2026-02-07 15:02:21.296
248.0, -186163.9915304174, -57639.270441445165, -187500.02235174447, -187500.02235174447, -32979.03781879399, 6873.004957795734, -107137.16383423375, -11570.089944611782, -83478.08819748023, -187500.02235174447, -187500.02235174447, -175214.63188107396, -137601.54099482787, -13486.506162465354, 4339.099447619849, -187500.02235174447, -0.041, 0.9199375000000001, 0.3433125, 192.0, 0.0, 0.0, 0.0, 0.0, 0.0, 0.0, 0.0, 0.0, 0.0, 1.770498141305091E9, 0.0, 2026-02-07 15:02:21.305
250.0, -186150.20050408848, -57637.5046536332, -187500.02235174447, -187500.02235174447, -32984.53634793, 6870.680376372383, -107141.65653486927, -11573.442706280079, -83427.97558641143, -187500.02235174447, -187500.02235174447, -175203.36660186847, -137605.49725359646, -13488.09313632168, 4337.378363296791, -187500.02235174447, -0.041, 0.9199375000000001, 0.3433125, 192.0, 0.0, 0.0, 0.0, 0.0, 0.0, 0.0, 0.0, 0.0, 0.0, 1.770498141312951E9, 0.0, 2026-02-07 15:02:21.312
