%OpenBCI Raw EXG Data
%Number of channels = 16
%Sample Rate = 125 Hz
%Board = OpenBCI_GUI$BoardCytonSerialDaisy
Sample Index, EXG Channel 0, EXG Channel 1, EXG Channel 2, EXG Channel 3, EXG Channel 4, EXG Channel 5, EXG Channel 6, EXG Channel 7, EXG Channel 8, EXG Channel 9, EXG Channel 10, EXG Channel 11, EXG Channel 12, EXG Channel 13, EXG Channel 14, EXG Channel 15, Accel Channel 0, Accel Channel 1, Accel Channel 2, Not Used, Digital Channel 0 (D11), Digital Channel 1 (D12), Digital Channel 2 (D13), Digital Channel 3 (D17), Not Used, Digital Channel 4 (D18), Analog Channel 0, Analog Channel 1, Analog Channel 2, Timestamp, Marker Channel, Timestamp (Formatted)
0.0, -66551.49210113194, -5439.74404808808, -5425.126007214309, -5162.649472075638, -69949.71721765009, -66827.69260736616, -66198.33453873808, -67622.72180589697, -5827.7256283433, -6484.598694395864, -3597.736787526225, -3592.886458979423, -5598.284971509573, -43787.9838094692, -40735.98721456376, -33831.17572440812, -0.098, 0.437, -0.197, 192.0, 124.5, 112.0, 13.5, 40.0, 121.5, 88.0, 0.0, 0.0, 0.0, 1.769893009766153E9, 0.0, 2026-01-31 14:56:49.766
2.0, -133101.12900747408, -10881.857381088423, -10842.42890386926, -10322.594383072184, -139904.9329644362, -133647.9867873176, -132389.0471326169, -135246.3823850611, -140320.20602467132, -140798.86863218172, -8789.152954715842, -8300.789690111838, -139737.92072986613, -89894.69288524306, -81670.14499546826, -70323.68425413183, -0.098, 0.437, -0.197, 192.0, 0.0, 0.0, 0.0, 0.0, 0.0, 0.0, 0.0, 0.0, 0.0, 1.769893009775231E9, 0.0, 2026-01-31 14:56:49.775
4.0, -133096.54689986072, -10852.598947596425, -10843.635898069848, -10321.834423760703, -139911.30321160593, -133639.80604884698, -132393.7409989525, -135252.23854210836, -140344.50237089425, -140823.23203363802, -8778.088841210467, -8289.680873117552, -139759.0878318653, -89879.85132692472, -81665.80875704394, -70318.69981511829, -0.098, 0.437, -0.197, 192.0, 0.0, 0.0, 0.0, 0.0, 0.0, 0.0, 0.0, 0.0, 0.0, 1.769893009782126E9, 0.0, 2026-01-31 14:56:49.782
6.0, -133104.79469356473, -10878.459915931215, -10842.674773058268, -10321.767368527338, -139901.75901672352, -133633.10052551038, -132388.77891168345, -135252.9761496754, -140318.23907115927, -140796.65580948067, -8787.901257026346, -8297.369873210177, -139738.85950313325, -89889.50728052942, -81671.48610013559, -70322.47725993124, -0.098, 0.437, -0.197, 192.0, 0.0, 0.0, 0.0, 0.0, 0.0, 0.0, 0.0, 0.0, 0.0, 1.769893009790241E9, 0.0, 2026-01-31 14:56:49.790
8.0, -133092.92591725898, -10840.48430210165, -10838.71851428968, -10313.85485099016, -139914.00777268503, -133618.88481603682, -132396.13263560925, -135257.80412647774, -140342.64717610445, -140820.72863825902, -8776.859495265424, -8288.518582405875, -139755.66801496365, -89879.9183821581, -81664.64646633225, -70318.76687035167, -0.20800000000000002, 0.886, -0.372, 192.0, 124.5, 64.0, 13.5, 88.0, 122.0, 48.0, 0.0, 0.0, 0.0, 1.769893009797259E9, 0.0, 2026-01-31 14:56:49.797
10.0, -133105.93463253198, -10870.010956527109, -10841.154854435308, -10313.832499245704, -139896.4616532876, -133605.45141761916, -132393.02574312995, -135258.07234741122, -140315.4674548468, -140793.05717862336, -8784.280274424586, -8289.703224862007, -139734.92559610913, -89882.62294323719, -81669.49679487906, -70318.99038779622, -0.20800000000000002, 0.886, -0.372, 192.0, 0.0, 0.0, 0.0, 0.0, 0.0, 0.0, 0.0, 0.0, 0.0, 1.769893009805316E9, 0.0, 2026-01-31 14:56:49.805
12.0, -133092.14360620306, -10829.733113018647, -10834.024647954066, -10307.104624164656, -139918.4334180872, -133588.6429057888, -132397.6972577211, -135259.74872824535, -140341.35077492605, -140817.71115275755, -8774.758431286626, -8281.746003835917, -139751.3317765393, -89874.37514953318, -81662.45599537564, -70313.69302436031, -0.20800000000000002, 0.886, -0.372, 192.0, 0.0, 0.0, 0.0, 0.0, 0.0, 0.0, 0.0, 0.0, 0.0, 1.769893009815189E9, 0.0, 2026-01-31 14:56:49.815
14.0, -133108.79565582224, -10863.528950635071, -10837.869148000378, -10309.429205588009, -139893.3771125528, -133579.16576613972, -132389.47181576156, -135257.22298112191, -140319.5801758266, -140797.0357891364, -8776.457163865229, -8280.06962300177, -139736.64668043217, -89874.44220476654, -81666.16638495521, -70313.26834121566, -0.20800000000000002, 0.886, -0.372, 192.0, 0.0, 0.0, 0.0, 0.0, 0.0, 0.0, 0.0, 0.0, 0.0, 1.769893009822307E9, 0.0, 2026-01-31 14:56:49.822
16.0, -133094.49053937086, -10824.52515656056, -10829.487243829637, -10304.690635763483, -139920.3780198548, -133565.28533283298, -132387.03547561594, -135258.98876893386, -140334.44408588935, -140811.27385035442, -8767.605873060927, -8273.744079320917, -139749.2754160494, -89870.53064948687, -81656.86805926182, -70310.87670455893, -0.20800000000000002, 0.886, -0.372, 192.0, 0.0, 0.0, 0.0, 0.0, 0.0, 0.0, 0.0, 0.0, 0.0, 1.769893009829229E9, 0.0, 2026-01-31 14:56:49.829
18.0, -133112.70721110192, -10861.740811078645, -10836.9080229888, -10312.04435968928, -139894.94173466467, -133561.06085313094, -132375.21140279906, -135261.89449571306, -140326.55392009663, -140802.35550431674, -8771.092745195954, -8273.364099665177, -139743.15103806867, -89869.56952447529, -81662.85832677584, -70314.45298367178, -0.22, 0.896, -0.36, 192.0, 124.5, 16.0, 14.0, 0.0, 122.0, 96.0, 0.0, 0.0, 0.0, 1.769893009836254E9, 0.0, 2026-01-31 14:56:49.836
20.0, -133099.87730978458, -10825.821557738967, -10827.967325206677, -10309.22803988791, -139918.36636285382, -133554.91412340573, -132367.23183002853, -135269.58349580568, -140336.2769289347, -140811.6314782657, -8768.25407365013, -8273.632320598641, -139746.6379102037, -89871.5588297318, -81651.61539931482, -70313.38009993793, -0.22, 0.896, -0.36, 192.0, 0.0, 0.0, 0.0, 0.0, 0.0, 0.0, 0.0, 0.0, 0.0, 1.769893009844257E9, 0.0, 2026-01-31 14:56:49.844
22.0, -133120.28445247226, -10856.979889509665, -10836.371581121872, -10311.887897478093, -139881.7095019471, -133560.1220798638, -132355.96655082304, -135274.74674877487, -140326.46451311882, -140801.1932136051, -8771.83035276298, -8273.744079320917, -139743.2851485354, -89869.34600703073, -81655.59400982787, -70317.22459998424, -0.22, 0.896, -0.36, 192.0, 0.0, 0.0, 0.0, 0.0, 0.0, 0.0, 0.0, 0.0, 0.0, 1.769893009853257E9, 0.0, 2026-01-31 14:56:49.853
24.0, -133105.04056275374, -10817.059673912487, -10823.407569337794, -10299.437975816487, -139899.03210389998, -133550.13085009228, -132354.35722522228, -135278.61360056564, -140319.3790101265, -140794.3312280573, -8768.768163772604, -8274.25816944339, -139728.66710766163, -89874.5092599999, -81643.03232944397, -70316.26347497267, -0.22, 0.896, -0.36, 192.0, 0.0, 0.0, 0.0, 0.0, 0.0, 0.0, 0.0, 0.0, 0.0, 1.769893009860282E9, 0.0, 2026-01-31 14:56:49.860
26.0, -133125.55946416373, -10844.373505636871, -10838.271479400573, -10304.064786918734, -139866.91264711772, -133542.88888488876, -132364.21434452705, -135286.6378768251, -140313.2099286568, -140787.2233733205, -8768.812867261513, -8270.525428119354, -139729.85175011776, -89867.9601988745, -81648.53085857998, -70316.86697207297, -0.22, 0.896, -0.36, 192.0, 0.0, 0.0, 0.0, 0.0, 0.0, 0.0, 0.0, 0.0, 0.0, 1.769893009870423E9, 0.0, 2026-01-31 14:56:49.870
28.0, -133106.60518486562, -10809.884763942333, -10828.168490906775, -10293.89474319157, -139890.98547589607, -133517.49730318753, -132370.87516437474, -135280.89347850007, -140306.1244256645, -140780.3166842838, -8775.384280131375, -8276.716861333474, -139715.39017145516, -89876.69973095653, -81643.79228875546, -70314.85531507198, -0.224, 0.9, -0.356, 192.0, 124.5, 0.0, 14.0, 16.0, 122.0, 112.0, 0.0, 0.0, 0.0, 1.769893009876464E9, 0.0, 2026-01-31 14:56:49.876
30.0, -133115.79175183675, -10827.341476361928, -10842.920642247278, -10297.716891493428, -139860.22947552556, -133505.02502978148, -132380.53111797944, -135277.56306857624, -140315.0651234466, -140788.0280361209, -8773.752602786137, -8267.418535640065, -139728.84592161726, -89862.28285578286, -81648.53085857998, -70306.80868706807, -0.224, 0.9, -0.356, 192.0, 0.0, 0.0, 0.0, 0.0, 0.0, 0.0, 0.0, 0.0, 0.0, 1.769893009885537E9, 0.0, 2026-01-31 14:56:49.885
32.0, -133099.69849582892, -10805.101490628898, -10834.918717732276, -10293.51476353583, -139879.27316180148, -133487.36715166178, -132382.14044358023, -135274.2773621413, -140298.0554459161, -140770.3254545123, -8779.027614477589, -8269.810172296784, -139708.3717236962, -89868.18371631905, -81641.51241082101, -70299.34320442, -0.224, 0.9, -0.356, 192.0, 0.0, 0.0, 0.0, 0.0, 0.0, 0.0, 0.0, 0.0, 0.0, 1.769893009892351E9, 0.0, 2026-01-31 14:56:49.892
34.0, -133113.8247983247, -10822.625258281858, -10850.408476639805, -10300.555563039252, -139853.12162078876, -133479.74520680253, -132387.92954539414, -135283.35217039016, -140310.6171263, -140783.7812046744, -8775.138410942365, -8259.573073336252, -139726.18606402708, -89852.24692252242, -81647.25680914603, -70292.90590201686, -0.224, 0.9, -0.356, 192.0, 0.0, 0.0, 0.0, 0.0, 0.0, 0.0, 0.0, 0.0, 0.0, 1.769893009900451E9, 0.0, 2026-01-31 14:56:49.900
36.0, -133103.1630162195, -10816.992618679122, -10842.942993991732, -10295.571124025719, -139862.44229822664, -133465.93182872914, -132382.20749881357, -135290.90706001606, -140285.53846902115, -140757.80847761733, -8785.97900700319, -8266.770335050862, -139697.3299619353, -89865.05447209532, -81646.69801553465, -70291.56479734955, -0.224, 0.9, -0.356, 192.0, 0.0, 0.0, 0.0, 0.0, 0.0, 0.0, 0.0, 0.0, 0.0, 1.769893009909474E9, 0.0, 2026-01-31 14:56:49.909
38.0, -133108.68389709998, -10830.157796163297, -10854.320031919484, -10296.688711248484, -139834.03323102393, -133462.1543839162, -132384.95676338158, -135302.1276357326, -140295.3061813481, -140767.28561726637, -8779.318187155508, -8255.370945378656, -139709.6234213857, -89850.4140794771, -81650.34134988087, -70287.04974496958, -0.22, 0.899, -0.353, 192.0, 124.5, 32.0, 14.0, 8.0, 122.5, 8.0, 0.0, 0.0, 0.0, 1.769893009916412E9, 0.0, 2026-01-31 14:56:49.916
40.0, -133101.55369061872, -10838.606755567404, -10846.608680082403, -10290.743147223371, -139841.7669346055, -133452.72194775604, -132378.63121970074, -135300.11597873163, -140261.3538815205, -140734.04857326133, -8788.50475412664, -8263.037593726825, -139675.82758376928, -89865.47915523997, -81648.12852717978, -70288.70377405928, -0.22, 0.899, -0.353, 192.0, 0.0, 0.0, 0.0, 0.0, 0.0, 0.0, 0.0, 0.0, 0.0, 1.769893009924411E9, 0.0, 2026-01-31 14:56:49.924
42.0, -133106.04639125423, -10842.406552124805, -10856.242281942641, -10293.201839113455, -139824.57844311936, -133449.4585930656, -132385.8955366487, -135304.0945892447, -140284.95732366532, -140757.38379447267, -8782.514486612617, -8254.141599433613, -139696.43589215708, -89856.00201559092, -81649.80490801393, -70288.21203568125, -0.22, 0.899, -0.353, 192.0, 0.0, 0.0, 0.0, 0.0, 0.0, 0.0, 0.0, 0.0, 0.0, 1.769893009932421E9, 0.0, 2026-01-31 14:56:49.932
44.0, -133102.9618505194, -10855.437619142249, -10849.223834183675, -10294.095908891668, -139814.36369590327, -133445.7929069749, -132380.39700751269, -135310.30837420325, -140244.67948015683, -140717.32946840877, -8791.075204739, -8261.897654759605, -139656.89565621564, -89871.3129605428, -81647.61443705732, -70290.7377828047, -0.22, 0.899, -0.353, 192.0, 0.0, 0.0, 0.0, 0.0, 0.0, 0.0, 0.0, 0.0, 0.0, 1.769893009941577E9, 0.0, 2026-01-31 14:56:49.941
46.0, -133099.5643853622, -10841.244261413129, -10851.928395262767, -10296.621656015117, -139798.53866082893, -133448.76568898748, -132383.05686510287, -135312.67765911552, -140255.78829715113, -140727.9241952806, -8778.290006910564, -8252.979308721937, -139668.1162319322, -89859.42183249258, -81644.03815794447, -70289.17316069284, -0.22, 0.899, -0.353, 192.0, 0.0, 0.0, 0.0, 0.0, 0.0, 0.0, 0.0, 0.0, 0.0, 1.769893009948564E9, 0.0, 2026-01-31 14:56:49.948
48.0, -133101.5760423632, -10859.19271221074, -10848.307412661006, -10298.298036849266, -139795.85645149427, -133449.9950349325, -132377.64774294468, -135298.41724615303, -140221.0983897565, -140694.64244778664, -8787.744794815158, -8264.579864094241, -139633.7616007044, -89876.02917862286, -81647.05564344593, -70296.34807066299, -0.223, 0.8965000000000001, -0.35150000000000003, 192.0, 124.0, 120.0, 13.5, 120.0, 122.5, 8.0, 0.0, 0.0, 0.0, 1.76989300995863E9, 0.0, 2026-01-31 14:56:49.958
50.0, -133091.22718468038, -10829.554299063004, -10847.815674282989, -10293.827687958204, -139798.02457070645, -133441.85899995078, -132386.11905409326, -135288.56012684826, -140247.2499307692, -140720.68223007707, -8775.808963276026, -8256.130904690135, -139660.62839753967, -89865.30034128432, -81643.99345445556, -70294.96226250676, -0.223, 0.8965000000000001, -0.35150000000000003, 192.0, 0.0, 0.0, 0.0, 0.0, 0.0, 0.0, 0.0, 0.0, 0.0, 1.769893009964612E9, 0.0, 2026-01-31 14:56:49.964
52.0, -133095.2057951934, -10849.089723716943, -10845.848720770922, -10293.045376902268, -139791.43080609213, -133434.12529636925, -132386.56608898236, -135273.11507142964, -140217.96914553276, -140692.07199717427, -8782.939169757268, -8265.026898983348, -139630.02885938037, -89876.94560014554, -81646.87682949028, -70297.57741660804, -0.223, 0.8965000000000001, -0.35150000000000003, 192.0, 0.0, 0.0, 0.0, 0.0, 0.0, 0.0, 0.0, 0.0, 0.0, 1.769893009973528E9, 0.0, 2026-01-31 14:56:49.973
54.0, -133082.44294910945, -10810.622371509358, -10842.38420038035, -10285.55754250974, -139806.47353011055, -133418.81435141736, -132396.1549873537, -135262.60975153564, -140245.5959016795, -140719.207014943, -8770.444544606751, -8257.315547146267, -139657.90148471613, -89866.55203897382, -81640.93126546517, -70293.66586132835, -0.223, 0.8965000000000001, -0.35150000000000003, 192.0, 0.0, 0.0, 0.0, 0.0, 0.0, 0.0, 0.0, 0.0, 0.0, 1.769893009980704E9, 0.0, 2026-01-31 14:56:49.980
56.0, -133092.4118271365, -10836.550395077515, -10844.351153892418, -10286.250446587856, -139802.02553296395, -133407.07968557833, -132393.2492605745, -135248.41639380652, -140227.8933200709, -140701.30326763433, -8779.429945877784, -8262.814076282273, -139639.72951647395, -89872.11762334319, -81647.43562310167, -70296.593939852, -0.223, 0.8965000000000001, -0.35150000000000003, 192.0, 0.0, 0.0, 0.0, 0.0, 0.0, 0.0, 0.0, 0.0, 0.0, 1.769893009988347E9, 0.0, 2026-01-31 14:56:49.988
58.0, -133078.19611766294, -10796.540772502514, -10840.99839222412, -10282.65181573055, -139827.9535565321, -133391.85814760425, -132397.8984234212, -135240.45917278042, -140256.861180885, -140731.67928834909, -8769.21519866171, -8252.44286685501, -139668.85383949924, -89858.95244585902, -81639.9701404536, -70288.837884526, -0.2235, 0.89625, -0.34775, 192.0, 124.5, 0.0, 14.0, 0.0, 122.5, 32.0, 0.0, 0.0, 0.0, 1.769893009996669E9, 0.0, 2026-01-31 14:56:49.996
60.0, -133093.2611934258, -10829.800168252012, -10846.653383571314, -10287.122164621613, -139818.7446378165, -133384.8396998453, -132391.41641752917, -135230.7138121979, -140245.9088261019, -140720.3693056547, -8777.083012709978, -8253.783971522329, -139660.94132196205, -89859.06420458129, -81647.52503007949, -70289.01669848165, -0.2235, 0.89625, -0.34775, 192.0, 0.0, 0.0, 0.0, 0.0, 0.0, 0.0, 0.0, 0.0, 0.0, 1.769893010003707E9, 0.0, 2026-01-31 14:56:50.003
62.0, -133077.63732405155, -10787.018929364554, -10836.57274682197, -10278.159115095033, -139850.8193911099, -133367.20417347006, -132387.92954539414, -135223.20362606092, -140276.50836426122, -140749.20305600204, -8769.237550406164, -8245.044439440304, -139687.4281391416, -89850.43643122155, -81640.90891372072, -70284.07696295703, -0.2235, 0.89625, -0.34775, 192.0, 0.0, 0.0, 0.0, 0.0, 0.0, 0.0, 0.0, 0.0, 0.0, 1.769893010012614E9, 0.0, 2026-01-31 14:56:50.012
64.0, -133092.59064109216, -10819.317200102472, -10839.813749767989, -10278.293225561765, -139833.4520856681, -133355.1789349531, -132375.61373419926, -135213.74883815635, -140268.3052740461, -140742.09520126524, -8769.729288784181, -8238.316564359257, -139681.95196175005, -89842.56861717328, -81644.86517248931, -70280.56773907754, -0.2235, 0.89625, -0.34775, 192.0, 0.0, 0.0, 0.0, 0.0, 0.0, 0.0, 0.0, 0.0, 0.0, 1.769893010020762E9, 0.0, 2026-01-31 14:56:50.020
66.0, -133076.76560601778, -10778.927597871732, -10829.062560684986, -10270.559521980229, -139867.96317910712, -133340.18091442357, -132373.42326324264, -135211.67012592198, -140288.60065801154, -140761.85414336374, -8761.079163679977, -8230.068770655247, -139695.18419446758, -89835.01372754738, -81633.68930026166, -70272.74462851818, -0.2235, 0.89625, -0.34775, 192.0, 0.0, 0.0, 0.0, 0.0, 0.0, 0.0, 0.0, 0.0, 0.0, 1.769893010027663E9, 0.0, 2026-01-31 14:56:50.027
68.0, -133091.98714399186, -10806.643760996314, -10834.739903776635, -10269.710155690927, -139839.73292586004, -133334.5706265653, -132368.28236201793, -135206.37276248608, -140284.39853005394, -140759.35074798475, -8761.012108446612, -8225.129035130625, -139699.05104625833, -89827.79411408832, -81642.85351548833, -70272.23053839571, -0.22375, 0.893125, -0.34587500000000004, 192.0, 124.5, 0.0, 13.5, 104.0, 122.5, 32.0, 0.0, 0.0, 0.0, 1.769893010035687E9, 0.0, 2026-01-31 14:56:50.035
70.0, -133074.15045191653, -10759.660394151259, -10819.987752436133, -10257.84137938516, -139872.63469369826, -133321.0254694254, -132363.52144044894, -135203.35527698463, -140291.55108827964, -140765.49747770996, -8753.792494987547, -8219.697561227986, -139703.56609863832, -89824.37429718666, -81631.67764326069, -70266.39673309287, -0.22375, 0.893125, -0.34587500000000004, 192.0, 0.0, 0.0, 0.0, 0.0, 0.0, 0.0, 0.0, 0.0, 0.0, 1.769893010044771E9, 0.0, 2026-01-31 14:56:50.044
72.0, -133092.74710330332, -10779.50874322757, -10829.219022896174, -10260.925920119991, -139848.62892015325, -133318.45501881302, -132363.2532195155, -135203.98112582936, -140292.64632375794, -140766.36919574373, -8753.032535676068, -8212.746168702384, -139709.10933126323, -89812.08083773624, -81633.77870723949, -70263.22278538022, -0.22375, 0.893125, -0.34587500000000004, 192.0, 0.0, 0.0, 0.0, 0.0, 0.0, 0.0, 0.0, 0.0, 0.0, 1.769893010053815E9, 0.0, 2026-01-31 14:56:50.053
74.0, -133076.22916415086, -10733.821777560923, -10818.534889046538, -10251.873463615593, -139884.59287698186, -133303.2111290945, -132368.81880388485, -135203.82466361817, -140296.5578790376, -140770.95130335705, -8754.77597174358, -8213.48377626941, -139705.35423819473, -89814.2489569484, -81631.49882930504, -70260.00413417866, -0.22375, 0.893125, -0.34587500000000004, 192.0, 0.0, 0.0, 0.0, 0.0, 0.0, 0.0, 0.0, 0.0, 0.0, 1.769893010059844E9, 0.0, 2026-01-31 14:56:50.059
76.0, -133092.43417888097, -10740.907280553256, -10830.8059967525, -10250.510007203819, -139865.05745232792, -133291.11883534418, -132379.63704820123, -135203.53409094026, -140307.48788207627, -140781.2331058065, -8751.378506586374, -8201.637351708097, -139726.70015414956, -89796.52402359534, -81637.71261426361, -70254.19268062028, -0.22375, 0.893125, -0.34587500000000004, 192.0, 0.0, 0.0, 0.0, 0.0, 0.0, 0.0, 0.0, 0.0, 0.0, 1.769893010068798E9, 0.0, 2026-01-31 14:56:50.068
78.0, -133080.63245780856, -10699.713015522126, -10822.513499559582, -10241.211681510411, -139902.38486556828, -133268.36475948867, -132384.53208023694, -135197.70028563743, -140310.30420187762, -140783.3341697853, -8758.084029922966, -8202.151441830569, -139721.08986629127, -89798.55803234078, -81637.93613170816, -70249.65527649585, -0.223875, 0.8895625, -0.3459375, 192.0, 124.5, 0.0, 13.5, 88.0, 122.5, 24.0, 0.0, 0.0, 0.0, 1.769893010076931E9, 0.0, 2026-01-31 14:56:50.076
80.0, -133095.5187196158, -10703.06577719042, -10833.57761306496, -10244.206815267422, -139894.85232768682, -133257.14418377212, -132385.76142618197, -135194.30282048022, -140335.65108008994, -140808.92691718662, -8754.373640343385, -8187.600456190165, -139751.39883177268, -89774.73107275141, -81644.03815794447, -70239.95461940226, -0.223875, 0.8895625, -0.3459375, 192.0, 0.0, 0.0, 0.0, 0.0, 0.0, 0.0, 0.0, 0.0, 0.0, 1.769893010083881E9, 0.0, 2026-01-31 14:56:50.083
82.0, -133085.88511775556, -10671.348651808341, -10817.193784379218, -10234.416751195999, -139929.6763455482, -133239.41925041907, -132374.47379523204, -135188.46901517737, -140334.06410623362, -140808.70339974205, -8758.128733411877, -8189.589761446687, -139745.85559914776, -89776.85448847467, -81637.95848345262, -70233.71848269922, -0.223875, 0.8895625, -0.3459375, 192.0, 0.0, 0.0, 0.0, 0.0, 0.0, 0.0, 0.0, 0.0, 0.0, 1.769893010091942E9, 0.0, 2026-01-31 14:56:50.091
84.0, -133102.3583534191, -10665.648956972236, -10823.273458871063, -10233.232108739867, -139918.9251564652, -133238.36871842967, -132371.81393764185, -135192.80525360172, -140365.46830719334, -140838.25240591198, -8744.650631505327, -8172.557732171743, -139775.31519833984, -89751.4852585179, -81637.4220415857, -70226.0741860955, -0.223875, 0.8895625, -0.3459375, 192.0, 0.0, 0.0, 0.0, 0.0, 0.0, 0.0, 0.0, 0.0, 0.0, 1.769893010100891E9, 0.0, 2026-01-31 14:56:50.100
86.0, -133100.9725452629, -10646.046477084932, -10808.9012871863, -10223.263230712799, -139946.01547074504, -133231.77495381536, -132366.4942224615, -135192.71584662388, -140353.9795105433, -140825.95894646156, -8751.467913564196, -8177.072784551715, -139767.8944191807, -89761.54354352278, -81635.03040492897, -70229.6281134639, -0.223875, 0.8895625, -0.3459375, 192.0, 0.0, 0.0, 0.0, 0.0, 0.0, 0.0, 0.0, 0.0, 0.0, 1.769893010107838E9, 0.0, 2026-01-31 14:56:50.107
88.0, -133107.5663098772, -10628.612116409793, -10810.108281386887, -10213.651980597018, -139941.16514219824, -133220.2861571653, -132378.47475748954, -135194.10165478013, -140384.4896417248, -140855.53030437592, -8736.58165175696, -8157.246787219858, -139795.18589916063, -89738.81181941174, -81635.61155028481, -70223.01199710513, -0.223875, 0.8895625, -0.3459375, 192.0, 0.0, 0.0, 0.0, 0.0, 0.0, 0.0, 0.0, 0.0, 0.0, 1.769893010115941E9, 0.0, 2026-01-31 14:56:50.115
90.0, -133106.5604813767, -10619.760825605492, -10801.681673727237, -10202.096128713623, -139967.2943314665, -133197.17445339853, -132388.37658028325, -135194.23576524685, -140370.8774293515, -140843.2368449255, -8744.360058827408, -8158.789057587273, -139783.58534378832, -89744.80208692576, -81638.58433229737, -70221.24620929315, -0.228, 0.888, -0.35000000000000003, 192.0, 124.0, 112.0, 13.5, 96.0, 122.5, 8.0, 0.0, 0.0, 0.0, 1.769893010124971E9, 0.0, 2026-01-31 14:56:50.124
92.0, -133111.7237343459, -10596.090328227321, -10809.169508119763, -10195.63647456604, -139977.95611357168, -133171.1346711081, -132409.38722007122, -135198.4602449489, -140413.23398509432, -140885.19106926813, -8735.240547089643, -8140.840606789662, -139826.56774837588, -89718.80700812423, -81641.35594860982, -70211.1208690549, -0.228, 0.888, -0.35000000000000003, 192.0, 0.0, 0.0, 0.0, 0.0, 0.0, 0.0, 0.0, 0.0, 0.0, 1.769893010131877E9, 0.0, 2026-01-31 14:56:50.131
94.0, -133118.1163332601, -10594.302188670898, -10800.497031271105, -10185.667596538973, -139999.52554697104, -133138.27760675878, -132409.63308926023, -135189.56425065568, -140402.48279601132, -140872.4952784175, -8744.807093716514, -8137.487845121365, -139816.82238779336, -89714.80604586675, -81641.75828001002, -70202.24722650615, -0.228, 0.888, -0.35000000000000003, 192.0, 0.0, 0.0, 0.0, 0.0, 0.0, 0.0, 0.0, 0.0, 0.0, 1.76989301014003E9, 0.0, 2026-01-31 14:56:50.140
96.0, -133123.1231240181, -10563.322670855841, -10801.346397560406, -10180.280826125245, -140017.0940181129, -133113.95890879142, -132416.98681318603, -135192.13470126805, -140449.399107623, -140919.07631386237, -8731.306640065508, -8113.973809954383, -139859.02248132497, -89681.61370535061, -81635.5668467959, -70185.70693560923, -0.228, 0.888, -0.35000000000000003, 192.0, 0.0, 0.0, 0.0, 0.0, 0.0, 0.0, 0.0, 0.0, 0.0, 1.76989301014902E9, 0.0, 2026-01-31 14:56:50.149
98.0, -133139.14932479255, -10577.717194285058, -10798.485374270127, -10178.559741802186, -140028.4040008073, -133103.5206441308, -132411.5106357945, -135193.90048908003, -140437.6867935284, -140908.54864222393, -8742.393105315341, -8115.203155899425, -139850.72998413205, -89682.30660942872, -81640.66304453171, -70183.09178150794, -0.228, 0.888, -0.35000000000000003, 192.0, 0.0, 0.0, 0.0, 0.0, 0.0, 0.0, 0.0, 0.0, 0.0, 1.769893010156984E9, 0.0, 2026-01-31 14:56:50.156
100.0, -133139.55165619275, -10538.400475788174, -10795.445537024205, -10168.43440156393, -140042.9996899366, -133092.72475155888, -132417.2550341195, -135199.24255600484, -140476.7129393474, -140946.59131128684, -8731.172529598776, -8099.646341758531, -139889.018522384, -89663.10646094162, -81636.55032355194, -70173.79345581454, -0.218, 0.896, -0.352, 192.0, 124.5, 24.0, 14.0, 0.0, 122.5, 0.0, 0.0, 0.0, 0.0, 1.769893010164001E9, 0.0, 2026-01-31 14:56:50.164
102.0, -133158.21536281292, -10555.544263785394, -10794.439708523716, -10162.757058472283, -140037.3446985894, -133086.44391136695, -132417.38914458622, -135203.914070596, -140456.7528315488, -140925.93829941016, -8738.235680846654, -8099.333417336156, -139864.87863837226, -89663.0617574527, -81639.79132649796, -70169.59132785694, -0.218, 0.896, -0.352, 192.0, 0.0, 0.0, 0.0, 0.0, 0.0, 0.0, 0.0, 0.0, 0.0, 1.769893010172001E9, 0.0, 2026-01-31 14:56:50.172
104.0, -133157.65656920156, -10512.450100475562, -10790.997539877599, -10153.861064179071, -140054.57789356445, -133075.8044810062, -132434.68939479464, -135215.73814341286, -140487.30766621922, -140957.02957594747, -8731.261936576599, -8090.973864909872, -139896.77457771, -89650.32126311318, -81635.5668467959, -70162.99756324262, -0.218, 0.896, -0.352, 192.0, 0.0, 0.0, 0.0, 0.0, 0.0, 0.0, 0.0, 0.0, 0.0, 1.76989301018009E9, 0.0, 2026-01-31 14:56:50.180
106.0, -133176.186165355, -10533.617202474737, -10791.779850933535, -10150.418895532954, -140034.97541367717, -133066.05912042368, -132439.60677857482, -135223.7624196723, -140463.34659616312, -140932.1073808798, -8737.363962812897, -8091.286789332246, -139876.99328386705, -89649.5613038017, -81639.00901544202, -70160.22594693016, -0.218, 0.896, -0.352, 192.0, 0.0, 0.0, 0.0, 0.0, 0.0, 0.0, 0.0, 0.0, 0.0, 1.769893010188144E9, 0.0, 2026-01-31 14:56:50.188
108.0, -133169.16771759602, -10485.985635040479, -10786.683653197724, -10143.646316962995, -140050.04048944003, -133052.82688770615, -132454.7612613155, -135239.18512334648, -140481.78678533874, -140951.1734189002, -8728.892651664335, -8082.569608994676, -139889.5549642509, -89637.08903039564, -81630.76122173801, -70152.64870555983, -0.218, 0.896, -0.352, 192.0, 0.0, 0.0, 0.0, 0.0, 0.0, 0.0, 0.0, 0.0, 0.0, 1.769893010196059E9, 0.0, 2026-01-31 14:56:50.196
110.0, -133192.52529055183, -10513.701798165059, -10796.965455647167, -10150.262433321766, -140023.2407478381, -133052.1563353725, -132457.7116915836, -135255.63600726557, -140459.23387518333, -140927.48056977757, -8737.945108168735, -8084.290693317735, -139871.74062392005, -89634.6079867611, -81638.7184427641, -70152.06756020398, -0.22, 0.9, -0.358, 192.0, 124.5, 16.0, 14.0, 16.0, 122.0, 104.0, 0.0, 0.0, 0.0, 1.76989301020409E9, 0.0, 2026-01-31 14:56:50.204
112.0, -133179.11424387863, -10464.751477807937, -10790.103470099386, -10144.585090230119, -140039.89279745732, -133045.94255041392, -132465.19952597615, -135271.37163536213, -140466.94522702042, -140936.8683024488, -8733.742980211136, -8079.999158382316, -139874.57929546587, -89627.07544887967, -81630.33653859336, -70144.75853976709, -0.22, 0.9, -0.358, 192.0, 0.0, 0.0, 0.0, 0.0, 0.0, 0.0, 0.0, 0.0, 0.0, 1.769893010213207E9, 0.0, 2026-01-31 14:56:50.213
114.0, -133196.6380115316, -10491.260646731931, -10798.284208570029, -10146.730857697828, -140002.27481153904, -133048.8035737042, -132470.2063167341, -135282.50280410086, -140445.6887180434, -140914.31539229339, -8739.263861091598, -8078.635701970542, -139862.97874009356, -89622.35923079959, -81638.517277064, -70143.43978684423, -0.22, 0.9, -0.358, 192.0, 0.0, 0.0, 0.0, 0.0, 0.0, 0.0, 0.0, 0.0, 0.0, 1.769893010219186E9, 0.0, 2026-01-31 14:56:50.219
116.0, -133179.80714795674, -10446.803027010326, -10787.644778209304, -10135.264412792256, -140018.65864022478, -133037.8065154322, -132478.8787935828, -135290.46002512696, -140441.12896217455, -140909.37565676877, -8733.988849400146, -8071.393736767022, -139852.85339985532, -89616.25720456328, -81629.10719264833, -70135.16964139577, -0.22, 0.9, -0.358, 192.0, 0.0, 0.0, 0.0, 0.0, 0.0, 0.0, 0.0, 0.0, 0.0, 1.769893010228125E9, 0.0, 2026-01-31 14:56:50.228
118.0, -133198.38144759912, -10477.827248314292, -10797.23367658063, -10137.834863404616, -139984.52752644152, -133036.3089485537, -132483.0809215404, -135295.9809060074, -140428.41081957947, -140896.90338336272, -8736.246375590132, -8066.342242520123, -139840.761106105, -89609.05994284867, -81637.06441367441, -70133.42620532826, -0.22, 0.9, -0.358, 192.0, 0.0, 0.0, 0.0, 0.0, 0.0, 0.0, 0.0, 0.0, 0.0, 1.769893010236204E9, 0.0, 2026-01-31 14:56:50.236
120.0, -133185.66330500404, -10447.07124794379, -10786.661301453269, -10131.017581345748, -140007.90745114177, -133030.02810836173, -132487.46186345362, -135298.59606010868, -140423.40402882147, -140891.8071856269, -8735.799340701025, -8067.236312298336, -139828.42294316567, -89613.150312084, -81627.65432925873, -70130.38636808233, -0.216, 0.894, -0.356, 192.0, 124.5, 32.0, 13.5, 120.0, 122.0, 112.0, 0.0, 0.0, 0.0, 1.76989301024414E9, 0.0, 2026-01-31 14:56:50.244
122.0, -133204.97521221344, -10480.375347182196, -10796.943103902711, -10136.113779081557, -139973.2398954916, -133033.91731189698, -132493.1839100342, -135301.65824909907, -140419.60423226407, -140887.6050576693, -8736.20167210122, -8063.481219229844, -139834.23439672403, -89606.82476840315, -81633.64459677275, -70132.48743206113, -0.216, 0.894, -0.356, 192.0, 0.0, 0.0, 0.0, 0.0, 0.0, 0.0, 0.0, 0.0, 0.0, 1.769893010252234E9, 0.0, 2026-01-31 14:56:50.252
124.0, -133193.91109870805, -10460.54934985034, -10785.141382830308, -10131.799892401683, -139993.95996260166, -133027.9940996163, -132496.69313391365, -135306.46387415694, -140409.50124377027, -140877.2561999865, -8738.861529691403, -8068.040975098726, -139813.4919778695, -89617.93358539743, -81626.00030016903, -70134.29792336201, -0.216, 0.894, -0.356, 192.0, 0.0, 0.0, 0.0, 0.0, 0.0, 0.0, 0.0, 0.0, 0.0, 1.76989301026028E9, 0.0, 2026-01-31 14:56:50.260
126.0, -133208.88676749312, -10488.131402508188, -10794.931446901734, -10136.627869204029, -139960.6335116188, -133028.21761706087, -132499.91178511523, -135309.01197302484, -140409.70240947037, -140877.7032348756, -8734.458236033706, -8060.97782385085, -139819.72811457256, -89611.29511729421, -81630.04596591544, -70135.79549024052, -0.216, 0.894, -0.356, 192.0, 0.0, 0.0, 0.0, 0.0, 0.0, 0.0, 0.0, 0.0, 0.0, 1.76989301026719E9, 0.0, 2026-01-31 14:56:50.267
128.0, -133198.0908749212, -10476.419088413608, -10784.56023747447, -10133.342162769099, -139981.95707582918, -133024.08254433662, -132499.71061941513, -135309.28019395832, -140393.8326709071, -140860.51474338947, -8741.387276814852, -8069.3820797660455, -139799.74565502952, -89629.04240239173, -81625.6650240022, -70140.04232168703, -0.216, 0.894, -0.356, 192.0, 0.0, 0.0, 0.0, 0.0, 0.0, 0.0, 0.0, 0.0, 0.0, 1.769893010275318E9, 0.0, 2026-01-31 14:56:50.275
130.0, -133208.48443609293, -10494.881629333691, -10793.836211423422, -10138.43836050491, -139946.61896784534, -133028.41878276097, -132504.5832997064, -135314.17522599403, -140401.0969878551, -140867.71200510408, -8735.575823256471, -8062.564797707177, -139806.02649522145, -89621.3534022991, -81629.04013741495, -70140.19878389822, -0.22, 0.898, -0.352, 192.0, 124.5, 16.0, 14.0, 8.0, 122.5, 0.0, 0.0, 0.0, 0.0, 1.769893010284314E9, 0.0, 2026-01-31 14:56:50.284
132.0, -133195.40866558655, -10487.63966413017, -10779.464039738661, -10133.230404046823, -139949.30117717996, -133026.07184959317, -132498.771846148, -135314.17522599403, -140366.13885952698, -140833.13385643173, -8740.001468658624, -8072.868951901073, -139770.8895529377, -89639.10068739661, -81622.69224198964, -70143.28332463304, -0.22, 0.898, -0.352, 192.0, 0.0, 0.0, 0.0, 0.0, 0.0, 0.0, 0.0, 0.0, 0.0, 1.769893010292263E9, 0.0, 2026-01-31 14:56:50.292
134.0, -133202.60592730116, -10498.636722402183, -10789.030586365532, -10137.834863404616, -139920.28861287696, -133033.8949601525, -132504.31507877292, -135323.16062726505, -140373.3361212416, -140838.49827510098, -8731.35134355442, -8067.54923672071, -139782.46775656554, -89632.7080884824, -81622.33461407837, -70145.58555431194, -0.22, 0.898, -0.352, 192.0, 0.0, 0.0, 0.0, 0.0, 0.0, 0.0, 0.0, 0.0, 0.0, 1.769893010299348E9, 0.0, 2026-01-31 14:56:50.299
136.0, -133196.50390106486, -10505.74457713897, -10782.392118262305, -10137.454883748876, -139922.21086290013, -133032.7997246742, -132501.90109037174, -135323.20533075396, -140338.31093768013, -140802.51196652793, -8743.935375682757, -8082.659015972497, -139743.55336946886, -89657.11619342759, -81620.99350941104, -70155.26385966109, -0.22, 0.898, -0.352, 192.0, 0.0, 0.0, 0.0, 0.0, 0.0, 0.0, 0.0, 0.0, 0.0, 1.769893010308419E9, 0.0, 2026-01-31 14:56:50.308
138.0, -133196.68271502052, -10505.811632372337, -10793.70210095669, -10142.036991362214, -139896.5734120099, -133034.96784388638, -132508.07017184142, -135324.16645576555, -140349.68797560787, -140812.8831759552, -8738.995640158135, -8077.562818236687, -139754.61748297425, -89651.14827765802, -81620.65823324422, -70155.82265327248, -0.22, 0.898, -0.352, 192.0, 0.0, 0.0, 0.0, 0.0, 0.0, 0.0, 0.0, 0.0, 0.0, 1.769893010316325E9, 0.0, 2026-01-31 14:56:50.316
140.0, -133189.37369458363, -10517.546298211373, -10789.27645555454, -10141.612308217564, -139885.64340897126, -133035.07960260863, -132501.29759327145, -135318.37735395163, -140306.88438497597, -140770.59367544577, -8753.434867076263, -8090.996216654327, -139709.19873824104, -89671.913048257, -81620.94880592213, -70159.98007774116, -0.222, 0.897, -0.353, 192.0, 124.5, 0.0, 14.0, 0.0, 122.0, 120.0, 0.0, 0.0, 0.0, 1.769893010323429E9, 0.0, 2026-01-31 14:56:50.323
142.0, -133185.01510441484, -10507.018626572923, -10798.999464392598, -10145.546215241697, -139865.77270815047, -133038.4100125325, -132505.6785351847, -135319.22672024093, -140315.6686205469, -140780.2719807949, -8744.941204183246, -8081.809649683196, -139717.1783110116, -89661.6088940631, -81618.66892798769, -70156.18028118376, -0.222, 0.897, -0.353, 192.0, 0.0, 0.0, 0.0, 0.0, 0.0, 0.0, 0.0, 0.0, 0.0, 1.769893010331429E9, 0.0, 2026-01-31 14:56:50.331
144.0, -133184.8809939481, -10533.08076060781, -10801.480508027138, -10151.134151355523, -139853.30043474442, -133040.1534486, -132494.70382865713, -135313.191749238, -140274.78727993814, -140737.84836981873, -8761.459143335718, -8094.237219600346, -139679.18034543758, -89680.42906289447, -81625.4191548132, -70162.10349346441, -0.222, 0.897, -0.353, 192.0, 0.0, 0.0, 0.0, 0.0, 0.0, 0.0, 0.0, 0.0, 0.0, 1.769893010340362E9, 0.0, 2026-01-31 14:56:50.340
146.0, -133171.91698216402, -10516.473414477518, -10806.129670873843, -10153.10110486759, -139845.5667311629, -133038.0523846212, -132490.65816291072, -135308.4978829024, -140289.00298941173, -140752.08643103676, -8751.266747864098, -8084.290693317735, -139687.58460135278, -89670.48253661186, -81621.52995127797, -70157.52138585108, -0.222, 0.897, -0.353, 192.0, 0.0, 0.0, 0.0, 0.0, 0.0, 0.0, 0.0, 0.0, 0.0, 1.769893010347491E9, 0.0, 2026-01-31 14:56:50.347
148.0, -133174.95681940994, -10552.057391650367, -10810.354150575895, -10160.052497393192, -139829.76404783298, -133040.3099108112, -132477.00124704852, -135299.3336676757, -140252.9496256053, -140714.93783175206, -8764.230759648175, -8095.019530656283, -139652.13473464665, -89687.87219379809, -81627.29670134744, -70163.73517080965, -0.222, 0.897, -0.353, 192.0, 0.0, 0.0, 0.0, 0.0, 0.0, 0.0, 0.0, 0.0, 0.0, 1.769893010357498E9, 0.0, 2026-01-31 14:56:50.357
150.0, -133160.428185514, -10528.208080316554, -10812.075234898954, -10160.208959604379, -139831.08280075583, -133037.53829449872, -132473.5590784024, -135293.36575190612, -140272.6638642149, -140734.29444245034, -8757.726402011682, -8090.057443387204, -139670.59727556675, -89684.18415596297, -81622.58048326737, -70162.63993533135, -0.225, 0.8945000000000001, -0.3525, 192.0, 124.0, 112.0, 13.5, 112.0, 122.5, 0.0, 0.0, 0.0, 0.0, 1.76989301036453E9, 0.0, 2026-01-31 14:56:50.364
152.0, -133170.933505408, -10570.162304659165, -10820.099511158409, -10167.383869574533, -139810.87682376825, -133040.37696604454, -132463.59020037536, -135286.436711125, -140239.67268939887, -140700.54330832284, -8771.316262640508, -8099.445176058433, -139640.82475195228, -89698.8245485812, -81629.0177856705, -70168.563147612, -0.225, 0.8945000000000001, -0.3525, 192.0, 0.0, 0.0, 0.0, 0.0, 0.0, 0.0, 0.0, 0.0, 0.0, 1.769893010371529E9, 0.0, 2026-01-31 14:56:50.371
154.0, -133150.61576969814, -10540.90387116717, -10817.506708801593, -10163.561721272674, -139815.12365521476, -133035.77250668677, -132461.98087477457, -135280.11116744415, -140252.23436978273, -140712.74736079545, -8765.59421605995, -8095.511269034299, -139648.22317936696, -89697.43874042497, -81622.02168965599, -70167.02087724458, -0.225, 0.8945000000000001, -0.3525, 192.0, 0.0, 0.0, 0.0, 0.0, 0.0, 0.0, 0.0, 0.0, 0.0, 1.76989301037948E9, 0.0, 2026-01-31 14:56:50.379
156.0, -133155.3766912671, -10583.036909465422, -10823.407569337794, -10168.63556726403, -139780.3890443312, -133038.63352997703, -132454.44833689314, -135270.96930396193, -140216.62804086544, -140676.8504592002, -8773.037346963567, -8100.65217025902, -139617.26601329638, -89706.24532774035, -81627.34140483635, -70171.02183950208, -0.225, 0.8945000000000001, -0.3525, 192.0, 0.0, 0.0, 0.0, 0.0, 0.0, 0.0, 0.0, 0.0, 0.0, 1.769893010388545E9, 0.0, 2026-01-31 14:56:50.388
158.0, -133130.76742062182, -10550.336307327309, -10816.880859956844, -10165.595730018107, -139791.11788166975, -133033.6937944524, -132454.89537178224, -135263.83909748067, -140221.56777639006, -140682.28193310284, -8764.25311139263, -8097.5005742908215, -139615.07554233976, -89706.4688451849, -81617.43958204264, -70169.03253424556, -0.225, 0.8945000000000001, -0.3525, 192.0, 0.0, 0.0, 0.0, 0.0, 0.0, 0.0, 0.0, 0.0, 0.0, 1.769893010395521E9, 0.0, 2026-01-31 14:56:50.395
160.0, -133142.05505157175, -10596.112679971777, -10827.43088333975, -10176.481029567842, -139759.4454597766, -133038.9464543994, -132449.93328451316, -135255.85952471013, -140195.77386328863, -140655.23632231192, -8770.511599840118, -8103.557897038209, -139596.59064967523, -89715.11897028911, -81625.016823413, -70175.33572618196, -0.2245, 0.8912500000000001, -0.35624999999999996, 192.0, 124.5, 0.0, 13.5, 96.0, 122.0, 96.0, 0.0, 0.0, 0.0, 1.7698930104036E9, 0.0, 2026-01-31 14:56:50.403
162.0, -133119.4797896719, -10566.429563335128, -10820.300676858507, -10174.87170396706, -139778.8914774527, -133036.42070727597, -132447.45224087863, -135250.45040255194, -140201.98764824722, -140661.8524386707, -8767.583521316472, -8107.469452317889, -139593.17083277355, -89725.46782797192, -81618.82539019888, -70178.95670878372, -0.2245, 0.8912500000000001, -0.35624999999999996, 192.0, 0.0, 0.0, 0.0, 0.0, 0.0, 0.0, 0.0, 0.0, 0.0, 1.769893010412653E9, 0.0, 2026-01-31 14:56:50.412
164.0, -133129.29220548776, -10609.34491268932, -10829.889575229834, -10182.650111037507, -139740.62529094523, -133042.0533468787, -132438.33272914085, -135243.923693171, -140186.9002207399, -140644.73100241795, -8770.891579495858, -8110.755158752819, -139584.27483848034, -89732.48627573089, -81627.45316355863, -70186.17632224278, -0.2245, 0.8912500000000001, -0.35624999999999996, 192.0, 0.0, 0.0, 0.0, 0.0, 0.0, 0.0, 0.0, 0.0, 0.0, 1.769893010419636E9, 0.0, 2026-01-31 14:56:50.419
166.0, -133106.58283312118, -10584.087441454822, -10821.060636169987, -10181.130192414546, -139754.7292416965, -133039.661710222, -132433.30358663842, -135237.24052157885, -140176.57371480152, -140635.1868075355, -8767.762335272115, -8112.677408775975, -139566.28168419382, -89741.6281392131, -81616.83608494236, -70185.05873502001, -0.2245, 0.8912500000000001, -0.35624999999999996, 192.0, 0.0, 0.0, 0.0, 0.0, 0.0, 0.0, 0.0, 0.0, 0.0, 1.76989301042757E9, 0.0, 2026-01-31 14:56:50.427
168.0, -133116.5293594038, -10626.82397685337, -10833.935240976243, -10191.456698352898, -139718.56411916783, -133048.89298068202, -132429.54849356992, -135229.8197424197, -140164.10144139547, -140622.17809226253, -8773.529085341583, -8117.4159786005, -139562.6830533365, -89745.62910147061, -81626.13441063576, -70190.53491241156, -0.2245, 0.8912500000000001, -0.35624999999999996, 192.0, 0.0, 0.0, 0.0, 0.0, 0.0, 0.0, 0.0, 0.0, 0.0, 1.769893010435654E9, 0.0, 2026-01-31 14:56:50.435
170.0, -133094.0658562262, -10604.226363209053, -10824.391046093828, -10186.695776783918, -139741.36289851225, -133048.37889055954, -132428.02857494695, -135218.68857368096, -140156.59125525848, -140614.39968519207, -8774.512562097618, -8125.887289749061, -139546.45568686197, -89761.25297084487, -81617.57369250938, -70193.35123221294, -0.22025, 0.8896250000000001, -0.35812499999999997, 192.0, 124.5, 32.0, 13.5, 96.0, 122.0, 96.0, 0.0, 0.0, 0.0, 1.769893010444709E9, 0.0, 2026-01-31 14:56:50.444
172.0, -133103.38653366407, -10633.082465300855, -10834.181110165253, -10189.959131474392, -139707.0306190289, -133047.44011729243, -132425.18990340113, -135203.64584966254, -140157.10534538096, -140613.57267064723, -8771.942111485258, -8123.205080414425, -139553.45178287648, -89760.26949408883, -81622.87105594529, -70199.02857530458, -0.22025, 0.8896250000000001, -0.35812499999999997, 192.0, 0.0, 0.0, 0.0, 0.0, 0.0, 0.0, 0.0, 0.0, 0.0, 1.769893010451722E9, 0.0, 2026-01-31 14:56:50.451
174.0, -133084.8122340217, -10619.537308160938, -10824.212232138185, -10190.093241941124, -139733.56213969734, -133037.33712879862, -132423.58057780034, -135189.74306461134, -140142.39789752936, -140598.3287809287, -8774.892541753357, -8129.016533972805, -139531.0329831878, -89775.2898663628, -81615.49498027503, -70201.04023230556, -0.22025, 0.8896250000000001, -0.35812499999999997, 192.0, 0.0, 0.0, 0.0, 0.0, 0.0, 0.0, 0.0, 0.0, 0.0, 1.769893010459637E9, 0.0, 2026-01-31 14:56:50.459
176.0, -133087.8073677787, -10642.224328783075, -10832.728246775658, -10196.374082133065, -139708.01409578492, -133037.7618119433, -132421.8594934773, -135177.18138422744, -140156.2783308361, -140612.00804853535, -8768.924625983791, -8124.859109504117, -139550.6354630751, -89771.8924012056, -81621.0158611555, -70204.90708409632, -0.22025, 0.8896250000000001, -0.35812499999999997, 192.0, 0.0, 0.0, 0.0, 0.0, 0.0, 0.0, 0.0, 0.0, 0.0, 1.769893010467752E9, 0.0, 2026-01-31 14:56:50.467
178.0, -133071.40118734853, -10632.188395522642, -10822.357037348394, -10195.2564949103, -139727.32600299432, -133032.9561868854, -132410.01306891599, -135167.32426492267, -140139.46981900572, -140595.2442401939, -8771.78564927407, -8132.481054363377, -139526.13795115208, -89791.24901190388, -81614.04211688544, -70208.75158414264, -0.22025, 0.8896250000000001, -0.35812499999999997, 192.0, 0.0, 0.0, 0.0, 0.0, 0.0, 0.0, 0.0, 0.0, 0.0, 1.769893010474762E9, 0.0, 2026-01-31 14:56:50.474
180.0, -133074.39632110554, -10642.291384016442, -10828.302601373507, -10201.582038591152, -139702.8284910713, -133033.38087003003, -132399.753618211, -135159.43409912993, -140153.48436277919, -140608.02943802232, -8760.475666579685, -8122.221603658391, -139547.6403293181, -89779.9390292095, -81613.30450931842, -70207.09755505295, -0.22012500000000002, 0.8888125, -0.35906249999999995, 192.0, 124.5, 16.0, 13.5, 96.0, 122.0, 96.0, 0.0, 0.0, 0.0, 1.769893010483741E9, 0.0, 2026-01-31 14:56:50.483
182.0, -133062.84046922214, -10643.207805539108, -10816.120900645365, -10201.202058935412, -139724.64379365966, -133031.32450954017, -132382.20749881357, -135148.7052617914, -140132.1831503133, -140588.40460639057, -8764.655442792826, -8132.793978785751, -139520.77353248282, -89798.02159047384, -81606.68839295965, -70211.52320045509, -0.22012500000000002, 0.8888125, -0.35906249999999995, 192.0, 0.0, 0.0, 0.0, 0.0, 0.0, 0.0, 0.0, 0.0, 0.0, 1.769893010491736E9, 0.0, 2026-01-31 14:56:50.491
184.0, -133062.52754479976, -10643.766599150491, -10820.770063492067, -10202.364349647087, -139714.7866743549, -133032.4420967629, -132378.2959435339, -135142.2456076438, -140161.4862872942, -140617.28306022682, -8751.624375775382, -8125.46260660441, -139553.11650670966, -89788.52209908034, -81603.760314436, -70212.64078767787, -0.22012500000000002, 0.8888125, -0.35906249999999995, 192.0, 0.0, 0.0, 0.0, 0.0, 0.0, 0.0, 0.0, 0.0, 0.0, 1.769893010499887E9, 0.0, 2026-01-31 14:56:50.499
186.0, -133057.18547787494, -10647.074657329877, -10810.689426742725, -10198.855125767604, -139733.22686353052, -133023.88137863652, -132367.32123700634, -135131.6955842609, -140144.65542371935, -140599.17814721802, -8757.502884567128, -8138.046638732749, -139532.66466053305, -89808.57161385675, -81600.765180679, -70220.12862207039, -0.22012500000000002, 0.8888125, -0.35906249999999995, 192.0, 0.0, 0.0, 0.0, 0.0, 0.0, 0.0, 0.0, 0.0, 0.0, 1.769893010506775E9, 0.0, 2026-01-31 14:56:50.506
188.0, -133055.7549662298, -10631.562546677893, -10812.768138977068, -10195.859992010593, -139729.22590127302, -133009.4421517184, -132369.57876319633, -135123.55954927916, -140177.0431014351, -140632.50459820087, -8744.1141896384, -8128.949478739439, -139567.22045746093, -89797.75336954038, -81596.38423876575, -70217.78168890259, -0.22012500000000002, 0.8888125, -0.35906249999999995, 192.0, 0.0, 0.0, 0.0, 0.0, 0.0, 0.0, 0.0, 0.0, 0.0, 1.769893010515791E9, 0.0, 2026-01-31 14:56:50.515
190.0, -133052.91629468396, -10643.453674728116, -10804.296827828506, -10191.456698352898, -139736.75843915445, -132990.01848578674, -132361.75565263696, -135107.10866536005, -140152.38912730088, -140607.80592057775, -8751.870244964392, -8135.900871265039, -139545.2933961503, -89810.71738132446, -81593.12088407528, -70215.14418305685, -0.22012500000000002, 0.8888125, -0.35906249999999995, 192.0, 0.0, 0.0, 0.0, 0.0, 0.0, 0.0, 0.0, 0.0, 0.0, 1.769893010522856E9, 0.0, 2026-01-31 14:56:50.522
192.0, -133045.67432948045, -10625.14759601922, -10805.347359817906, -10188.3051023847, -139741.4299537456, -132976.20510771335, -132368.57293469584, -135100.7384181903, -140185.4473573503, -140639.9924325934, -8738.0121634021, -8122.579231569676, -139572.42841391903, -89794.44531136099, -81584.71662816008, -70203.20835151772, -0.216, 0.892, -0.358, 192.0, 124.5, 32.0, 13.5, 112.0, 122.0, 104.0, 0.0, 0.0, 0.0, 1.769893010530865E9, 0.0, 2026-01-31 14:56:50.530
194.0, -133052.13398362804, -10656.261224301008, -10805.593229006914, -10189.91442798548, -139745.6767851921, -132968.22553494282, -132366.2483532725, -135094.77050242072, -140166.090746652, -140619.38412420562, -8746.885805950858, -8130.9611357404165, -139555.57519859972, -89807.20815744498, -81586.61652643878, -70203.18599977327, -0.216, 0.892, -0.358, 192.0, 0.0, 0.0, 0.0, 0.0, 0.0, 0.0, 0.0, 0.0, 0.0, 1.769893010539889E9, 0.0, 2026-01-31 14:56:50.539
196.0, -133043.68502422393, -10637.552814191917, -10804.98973190662, -10187.612198306584, -139757.0761748643, -132957.139069693, -132372.70800742006, -135091.4847959858, -140201.92059301384, -140655.3927845231, -8735.799340701025, -8122.6239350585865, -139592.34381822872, -89798.06629396277, -81580.22392752457, -70196.92751132579, -0.216, 0.892, -0.358, 192.0, 0.0, 0.0, 0.0, 0.0, 0.0, 0.0, 0.0, 0.0, 0.0, 1.769893010547908E9, 0.0, 2026-01-31 14:56:50.547
198.0, -133054.10093714012, -10679.194114112153, -10802.776909205546, -10190.607332063597, -139748.29193929338, -132949.7853457672, -132367.58945793982, -135082.8793743705, -140180.3958631034, -140633.28690925683, -8742.214291359698, -8129.128292695081, -139570.6402743626, -89809.62214584615, -81581.78854963643, -70196.54753167005, -0.216, 0.892, -0.358, 192.0, 0.0, 0.0, 0.0, 0.0, 0.0, 0.0, 0.0, 0.0, 0.0, 1.769893010554903E9, 0.0, 2026-01-31 14:56:50.554
200.0, -133043.8638381796, -10656.216520812097, -10795.04320562401, -10185.578189561153, -139762.8876284227, -132936.79898223866, -132371.05397833037, -135079.4372057244, -140209.90016578438, -140663.6629299716, -8730.658439476305, -8122.713342036408, -139592.12030078415, -89806.35879115568, -81572.82550010986, -70191.13840951186, -0.216, 0.892, -0.358, 192.0, 0.0, 0.0, 0.0, 0.0, 0.0, 0.0, 0.0, 0.0, 0.0, 1.769893010562947E9, 0.0, 2026-01-31 14:56:50.562
202.0, -133060.89586745453, -10700.808251000435, -10795.020853879554, -10188.506268084797, -139738.52422696643, -132930.71930774683, -132370.53988820792, -135080.24186852478, -140180.46291833674, -140632.88457785663, -8733.564166255495, -8125.172033926491, -139572.22724821893, -89815.65711684909, -81572.84785185431, -70189.97611880019, -0.214, 0.892, -0.358, 192.0, 124.5, 40.0, 13.5, 112.0, 122.0, 104.0, 0.0, 0.0, 0.0, 1.769893010571872E9, 0.0, 2026-01-31 14:56:50.571
204.0, -133051.53048652774, -10671.840390186357, -10786.482487497628, -10183.097145926613, -139754.57277948532, -132918.93993841886, -132378.56416446736, -135085.6733424274, -140196.4891191112, -140651.7494501769, -8724.422302773273, -8123.294487392246, -139582.62080939065, -89819.56867212876, -81564.6000581503, -70189.84200833345, -0.214, 0.892, -0.358, 192.0, 0.0, 0.0, 0.0, 0.0, 0.0, 0.0, 0.0, 0.0, 0.0, 1.769893010579963E9, 0.0, 2026-01-31 14:56:50.579
206.0, -133070.61887629257, -10711.984123228089, -10788.672958454246, -10185.801707005705, -139732.28809026338, -132913.91079591642, -132377.31246677786, -135082.0300080812, -140178.2947991246, -140631.11879004465, -8726.858642918902, -8127.161339183014, -139568.02512026133, -89828.06233502178, -81567.5504884184, -70193.2171217462, -0.214, 0.892, -0.358, 192.0, 0.0, 0.0, 0.0, 0.0, 0.0, 0.0, 0.0, 0.0, 0.0, 1.76989301058802E9, 0.0, 2026-01-31 14:56:50.588
208.0, -133054.54797202922, -10674.187323354165, -10774.434897236217, -10179.342052858121, -139754.7292416965, -132900.94678413233, -132381.31342903536, -135074.4751184553, -140192.06347370904, -140646.76501116337, -8716.085102091445, -8125.082626948671, -139577.5022599104, -89830.23045423394, -81554.02768302294, -70190.0208222891, -0.214, 0.892, -0.358, 192.0, 0.0, 0.0, 0.0, 0.0, 0.0, 0.0, 0.0, 0.0, 0.0, 1.769893010594943E9, 0.0, 2026-01-31 14:56:50.594
210.0, -133069.09895766963, -10708.363140626328, -10775.8430571369, -10183.454773837897, -139727.10248554975, -132897.07993234158, -132379.54764122338, -135065.31090322864, -140175.76905200112, -140629.91179584406, -8711.525346222561, -8123.4509496034325, -139565.16409697104, -89828.24114897742, -81553.67005511165, -70188.59031064395, -0.214, 0.892, -0.358, 192.0, 0.0, 0.0, 0.0, 0.0, 0.0, 0.0, 0.0, 0.0, 0.0, 1.769893010604021E9, 0.0, 2026-01-31 14:56:50.604
212.0, -133052.9609981729, -10669.716974463103, -10762.32025174144, -10177.665672023973, -139755.62331147472, -132887.28986827016, -132382.2969057914, -135062.04754853816, -140183.9497904718, -140638.80779013727, -8704.05986357449, -8124.367371126101, -139571.86962030764, -89833.38205020214, -81543.43295615113, -70187.40566818783, -0.214, 0.888, -0.356, 192.0, 124.5, 40.0, 13.5, 96.0, 122.0, 112.0, 0.0, 0.0, 0.0, 1.769893010611028E9, 0.0, 2026-01-31 14:56:50.611
214.0, -133072.38466410455, -10700.718844022615, -10769.18223728922, -10182.448945337408, -139730.36584024024, -132882.32778100108, -132385.78377792644, -135060.01353979274, -140181.0887671815, -140635.63384242464, -8703.366959496374, -8123.182728669969, -139573.948332542, -89832.5997391462, -81551.16665973267, -70189.84200833345, -0.214, 0.888, -0.356, 192.0, 0.0, 0.0, 0.0, 0.0, 0.0, 0.0, 0.0, 0.0, 0.0, 1.769893010619097E9, 0.0, 2026-01-31 14:56:50.619
216.0, -133058.59363777563, -10666.140695350254, -10754.586548159903, -10174.91640745597, -139761.52417201092, -132866.2121732488, -132388.15306283868, -135057.01840603573, -140183.16747941583, -140636.32674650275, -8697.399043726808, -8123.763874025807, -139569.52268713983, -89838.96998631598, -81541.80127880588, -70187.27155772109, -0.214, 0.888, -0.356, 192.0, 0.0, 0.0, 0.0, 0.0, 0.0, 0.0, 0.0, 0.0, 0.0, 1.769893010628072E9, 0.0, 2026-01-31 14:56:50.628
218.0, -133077.0114752068, -10694.30389336394, -10763.504894197571, -10179.565570302675, -139738.72539266653, -132862.39002494694, -132390.63410647324, -135055.18556299037, -140188.91187774084, -140643.56871170626, -8693.420433213763, -8120.187594912958, -139581.48087042343, -89833.56086415779, -81548.19387772011, -70188.29973796604, -0.214, 0.888, -0.356, 192.0, 0.0, 0.0, 0.0, 0.0, 0.0, 0.0, 0.0, 0.0, 0.0, 1.769893010635098E9, 0.0, 2026-01-31 14:56:50.635
220.0, -133061.49936455482, -10667.861779673312, -10749.959737057656, -10174.15644814449, -139765.97216915753, -132852.80112657562, -132393.71864720806, -135051.81044957764, -140183.12277592692, -140637.35492674768, -8691.76640412407, -8123.652115303531, -139570.7520330849, -89842.3003962398, -81539.52140087145, -70186.69041236525, -0.214, 0.888, -0.356, 192.0, 0.0, 0.0, 0.0, 0.0, 0.0, 0.0, 0.0, 0.0, 0.0, 1.769893010644088E9, 0.0, 2026-01-31 14:56:50.644
222.0, -133072.8093472492, -10688.8724194613, -10758.118123783843, -10179.20794239139, -139740.75940141195, -132852.08587075304, -132397.6525542322, -135051.4304699219, -140193.337523143, -140648.0390605973, -8684.43503194273, -8116.27603963328, -139585.1018530252, -89831.66096587908, -81544.63995035172, -70186.24337747614, -0.21, 0.886, -0.362, 192.0, 124.5, 56.0, 13.5, 88.0, 122.0, 88.0, 0.0, 0.0, 0.0, 1.769893010651127E9, 0.0, 2026-01-31 14:56:50.651
224.0, -133062.86282096658, -10673.360308809319, -10745.645850377781, -10176.458677823386, -139770.57662851532, -132842.4075654039, -132397.1384641097, -135047.76478383123, -140181.42404334832, -140636.97494709195, -8684.457383687184, -8120.098187935137, -139571.6461028631, -89841.4510299505, -81538.15794445967, -70185.52812165358, -0.21, 0.886, -0.362, 192.0, 0.0, 0.0, 0.0, 0.0, 0.0, 0.0, 0.0, 0.0, 0.0, 1.769893010662149E9, 0.0, 2026-01-31 14:56:50.662
226.0, -133073.9045827275, -10686.21256187112, -10751.837283591902, -10179.945549958415, -139754.3269102963, -132834.3609374, -132402.1452548677, -135042.89210353995, -140204.06636048155, -140658.4549735135, -8675.628444627338, -8111.202193641925, -139595.60717291918, -89830.0516402783, -81543.25414219548, -70184.566996642, -0.21, 0.886, -0.362, 192.0, 0.0, 0.0, 0.0, 0.0, 0.0, 0.0, 0.0, 0.0, 0.0, 1.769893010669172E9, 0.0, 2026-01-31 14:56:50.669
228.0, -133065.29916111223, -10675.774297210492, -10736.816911317936, -10175.743422000816, -139780.7019687536, -132821.5533878271, -132399.28423157745, -135034.9348825139, -140190.0518167081, -140645.8485896407, -8676.433107427729, -8116.387798355556, -139577.03287327682, -89842.43450670654, -81537.97913050403, -70184.00820303062, -0.21, 0.886, -0.362, 192.0, 0.0, 0.0, 0.0, 0.0, 0.0, 0.0, 0.0, 0.0, 0.0, 1.769893010676124E9, 0.0, 2026-01-31 14:56:50.676
230.0, -133075.24568739484, -10676.154276866231, -10741.17550148672, -10178.984424946837, -139768.9449511701, -132816.7030592803, -132401.56410951188, -135035.00193774723, -140217.65622111037, -140672.46951728695, -8662.351508420887, -8104.65313251652, -139612.28157428285, -89827.43648617703, -81537.28622642592, -70180.07429600648, -0.21, 0.886, -0.362, 192.0, 0.0, 0.0, 0.0, 0.0, 0.0, 0.0, 0.0, 0.0, 0.0, 1.769893010683255E9, 0.0, 2026-01-31 14:56:50.683
232.0, -133075.67037053948, -10675.103744876831, -10730.044332747977, -10176.101049912102, -139789.7991287469, -132810.4892743217, -132398.52427226596, -135036.85713253703, -140200.26656392415, -140655.6386537121, -8667.224188712144, -8112.476243075877, -139591.96383857296, -89839.93111132755, -81532.32413915684, -70180.74484834014, -0.20400000000000001, 0.892, -0.358, 192.0, 124.5, 80.0, 13.5, 112.0, 122.0, 104.0, 0.0, 0.0, 0.0, 1.769893010691166E9, 0.0, 2026-01-31 14:56:50.691
234.0, -133079.5595740747, -10662.296195303941, -10730.871347292823, -10173.195323132912, -139785.17231764464, -132805.92951845285, -132406.16856886967, -135043.31678668462, -140232.47542768426, -140688.07103491676, -8655.266005428553, -8103.3120278492015, -139622.31750754328, -89826.36360244318, -81531.3406624008, -70178.39791517233, -0.20400000000000001, 0.892, -0.358, 192.0, 0.0, 0.0, 0.0, 0.0, 0.0, 0.0, 0.0, 0.0, 0.0, 1.769893010699264E9, 0.0, 2026-01-31 14:56:50.699
236.0, -133079.29135314125, -10664.710183705114, -10718.421425631217, -10165.752192229294, -139793.8447944933, -132794.28425959163, -132403.91104267968, -135042.1768477174, -140206.50270062717, -140662.16536309308, -8655.824799039936, -8106.173051139481, -139596.76946363086, -89836.3548322147, -81525.68567105361, -70176.11803723789, -0.20400000000000001, 0.892, -0.358, 192.0, 0.0, 0.0, 0.0, 0.0, 0.0, 0.0, 0.0, 0.0, 0.0, 1.769893010707252E9, 0.0, 2026-01-31 14:56:50.707
238.0, -133081.57123107568, -10644.884186373256, -10720.567193098927, -10164.992232917813, -139797.13050092824, -132781.38730304092, -132415.37748758527, -135045.66371985243, -140236.87872134196, -140693.50250881942, -8641.85495875537, -8093.544315522232, -139629.04538262432, -89822.07206750776, -81522.77994427443, -70170.39599065733, -0.20400000000000001, 0.892, -0.358, 192.0, 0.0, 0.0, 0.0, 0.0, 0.0, 0.0, 0.0, 0.0, 0.0, 1.769893010715266E9, 0.0, 2026-01-31 14:56:50.715
240.0, -133087.78501603426, -10661.44682901464, -10713.191117428674, -10165.372212573555, -139801.10911144127, -132769.63028545742, -132410.41540031618, -135041.19337096135, -140215.13047398694, -140670.97195040845, -8649.52160710354, -8100.294542347735, -139609.5546614593, -89832.5550356573, -81523.31638614135, -70168.9654790122, -0.20400000000000001, 0.892, -0.358, 192.0, 0.0, 0.0, 0.0, 0.0, 0.0, 0.0, 0.0, 0.0, 0.0, 1.76989301072328E9, 0.0, 2026-01-31 14:56:50.723
242.0, -133085.63924856656, -10636.39052348024, -10709.614838315825, -10164.00875616178, -139805.75827428797, -132767.7974424121, -132414.7963422294, -135047.25069370875, -140247.67461391387, -140703.09140719075, -8636.132912174811, -8089.655111987008, -139635.77325770538, -89818.62989886165, -81514.59920580378, -70161.3658858974, -0.20400000000000001, 0.895, -0.359, 192.0, 124.5, 80.0, 14.0, 8.0, 122.0, 96.0, 0.0, 0.0, 0.0, 1.769893010731352E9, 0.0, 2026-01-31 14:56:50.731
244.0, -133098.9608882619, -10663.324375548886, -10703.803384757446, -10165.483971295831, -139796.9963904615, -132773.340675037, -132408.2025776151, -135054.626769379, -140218.03620076613, -140673.9670841655, -8640.312688387954, -8097.455870801911, -139610.96282135998, -89830.16339900058, -81513.19104590309, -70165.90329002182, -0.20400000000000001, 0.895, -0.359, 192.0, 0.0, 0.0, 0.0, 0.0, 0.0, 0.0, 0.0, 0.0, 0.0, 1.769893010739307E9, 0.0, 2026-01-31 14:56:50.739
246.0, -133090.44487362445, -10626.131072775253, -10692.49340206306, -10155.179817101935, -139805.26653590996, -132765.65167494438, -132410.77302822747, -135060.99701654876, -140242.62311966697, -140699.64923854463, -8624.062970168945, -8087.4646410303885, -139631.88405417014, -89820.46274190697, -81501.85871146426, -70163.4669498762, -0.20400000000000001, 0.895, -0.359, 192.0, 0.0, 0.0, 0.0, 0.0, 0.0, 0.0, 0.0, 0.0, 0.0, 1.76989301074825E9, 0.0, 2026-01-31 14:56:50.748
248.0, -133103.85592029762, -10654.517788233494, -10687.486611305072, -10153.682250223428, -139797.57753581734, -132758.6332271854, -132411.57769102787, -135063.16513576094, -140218.23736646623, -140674.23530509893, -8625.448778325173, -8088.805745697707, -139610.9404696155, -89827.48118966594, -81501.54578704188, -70163.69046732075, -0.20400000000000001, 0.895, -0.359, 192.0, 0.0, 0.0, 0.0, 0.0, 0.0, 0.0, 0.0, 0.0, 0.0, 1.769893010755256E9, 0.0, 2026-01-31 14:56:50.755
250.0, -133089.28258291277, -10613.994075536022, -10675.908407677223, -10143.378096029532, -139816.6435738377, -132742.11528803295, -132421.39010684373, -135063.05337703865, -140246.06528831308, -140701.0126949564, -8612.171842118722, -8081.206152582902, -139634.43215303804, -89822.87673030815, -81492.00159215946, -70157.29786840652, -0.20400000000000001, 0.895, -0.359, 192.0, 0.0, 0.0, 0.0, 0.0, 0.0, 0.0, 0.0, 0.0, 0.0, 1.76989301076335E9, 0.0, 2026-01-31 14:56:50.763
252.0, -133107.14162673254, -10650.449770742629, -10678.791782711958, -10145.523863497241, -139802.11493994176, -132739.9248170763, -132426.57571155735, -135063.85803983905, -140226.8874915704, -140681.76784298036, -8615.189327620188, -8081.966111894383, -139621.26697555388, -89826.78828558783, -81495.2872985944, -70155.59913582791, -0.202, 0.8985000000000001, -0.3625, 192.0, 124.5, 96.0, 14.0, 24.0, 122.0, 72.0, 0.0, 0.0, 0.0, 1.769893010771314E9, 0.0, 2026-01-31 14:56:50.771
254.0, -133094.17761494848, -10613.10000575781, -10667.861779673312, -10136.963145370859, -139829.4064199217, -132726.33495644748, -132436.47753435106, -135067.90370558546, -140248.88160811443, -140705.2595264029, -8605.84629843787, -8074.657091457498, -139637.717859473, -89822.00501227439, -81483.88790892219, -70148.46892934668, -0.202, 0.8985000000000001, -0.3625, 192.0, 0.0, 0.0, 0.0, 0.0, 0.0, 0.0, 0.0, 0.0, 0.0, 1.769893010778418E9, 0.0, 2026-01-31 14:56:50.778
0.0, -133111.20964422342, -10649.9133288757, -10669.225236085085, -10138.036029104715, -139807.45700686658, -132718.60125286595, -132437.32690064036, -135072.82108936564, -140239.0021370652, -140694.08365417525, -8609.824908950915, -8071.55019897821, -139631.92875765907, -89819.45691340648, -81485.76545545644, -70145.98788571214, -0.202, 0.8985000000000001, -0.3625, 192.0, 0.0, 0.0, 0.0, 0.0, 0.0, 0.0, 0.0, 0.0, 0.0, 1.769893010787425E9, 0.0, 2026-01-31 14:56:50.787
2.0, -133095.42931263798, -10614.038779024933, -10654.24956730003, -10130.302325523178, -139835.08376301333, -132706.03957248206, -132438.5115430965, -135081.381807492, -140251.72027966028, -140705.9077269921, -8599.297237312465, -8062.408335495989, -139639.4612955405, -89813.57840461475, -81468.46520524802, -70135.95195245171, -0.202, 0.8985000000000001, -0.3625, 192.0, 0.0, 0.0, 0.0, 0.0, 0.0, 0.0, 0.0, 0.0, 0.0, 1.769893010794433E9, 0.0, 2026-01-31 14:56:50.794
4.0, -133114.920033803, -10653.02022135499, -10658.25052955753, -10135.15265406998, -139812.46379762457, -132709.19116845026, -132434.39882211672, -135088.75788316227, -140246.6464336689, -140701.97381996797, -8598.671388467716, -8058.921463360962, -139639.8189234518, -89809.91271852406, -81470.29804829336, -70133.58266753945, -0.202, 0.8985000000000001, -0.3625, 192.0, 0.0, 0.0, 0.0, 0.0, 0.0, 0.0, 0.0, 0.0, 0.0, 1.769893010802483E9, 0.0, 2026-01-31 14:56:50.802
6.0, -133101.33017317418, -10621.191337250631, -10640.525596204472, -10125.787273143205, -139844.09151602883, -132703.9832119922, -132432.52127558246, -135097.7879879222, -140258.4034512524, -140712.94852649554, -8593.351673287354, -8059.9943470948165, -139646.68090899955, -89817.22173896096, -81457.89283012066, -70130.6098855269, -0.202, 0.8992500000000001, -0.36424999999999996, 192.0, 124.5, 88.0, 14.0, 16.0, 122.0, 72.0, 0.0, 0.0, 0.0, 1.769893010811453E9, 0.0, 2026-01-31 14:56:50.811
8.0, -133120.75383910583, -10652.662593443703, -10643.051343327921, -10126.882508621515, -139816.62122209326, -132706.576014349, -132433.8623802498, -135110.93081366192, -140257.7999541521, -140712.0097532284, -8587.048481350957, -8054.272300514258, -139649.94426369003, -89812.17024471406, -81456.1270423087, -70128.08413840344, -0.202, 0.8992500000000001, -0.36424999999999996, 192.0, 0.0, 0.0, 0.0, 0.0, 0.0, 0.0, 0.0, 0.0, 0.0, 1.769893010819499E9, 0.0, 2026-01-31 14:56:50.819
10.0, -133107.00751626582, -10621.705427373103, -10622.755959362503, -10116.824223616628, -139843.17509450618, -132699.64697356784, -132438.53389484095, -135122.10668588956, -140257.0623465851, -140712.6132503287, -8583.494553982562, -8059.368498250067, -139642.3670223197, -89823.77080008636, -81441.55370492383, -70127.3018273475, -0.202, 0.8992500000000001, -0.36424999999999996, 192.0, 0.0, 0.0, 0.0, 0.0, 0.0, 0.0, 0.0, 0.0, 0.0, 1.769893010826435E9, 0.0, 2026-01-31 14:56:50.826
12.0, -133121.91612981752, -10640.659706671204, -10622.264220984485, -10115.326656738122, -139814.36369590327, -132700.831616024, -132444.16653444368, -135129.57216853765, -140260.9515501203, -140714.13316895167, -8573.145696299756, -8051.903015601995, -139655.17457189257, -89813.89132903711, -81435.76460310991, -70123.77025172356, -0.202, 0.8992500000000001, -0.36424999999999996, 192.0, 0.0, 0.0, 0.0, 0.0, 0.0, 0.0, 0.0, 0.0, 0.0, 1.769893010834526E9, 0.0, 2026-01-31 14:56:50.834
14.0, -133111.09788550113, -10615.469290670073, -10602.751148075004, -10107.928229323416, -139840.49288517152, -132696.98711597768, -132449.08391822386, -135134.40014533998, -140248.2557592697, -140702.5102618349, -8568.049498563945, -8055.076963314648, -139635.5050367719, -89823.41317217507, -81417.4138209121, -70119.76928946606, -0.202, 0.8992500000000001, -0.36424999999999996, 192.0, 0.0, 0.0, 0.0, 0.0, 0.0, 0.0, 0.0, 0.0, 0.0, 1.76989301084345E9, 0.0, 2026-01-31 14:56:50.843
16.0, -133126.78881010876, -10629.908517588201, -10606.327427187853, -10112.085653792103, -139819.504597128, -132701.50216835763, -132459.6562933512, -135143.18438091094, -140264.28196004414, -140718.7599800539, -8559.55583567093, -8049.913710345472, -139656.64978702663, -89815.7465238269, -81415.73744007795, -70119.38930981033, -0.199, 0.892625, -0.368125, 192.0, 124.5, 112.0, 13.5, 88.0, 122.0, 48.0, 0.0, 0.0, 0.0, 1.769893010853493E9, 0.0, 2026-01-31 14:56:50.853
18.0, -133120.03858328325, -10615.089311014332, -10587.686072312126, -10107.458842689854, -139843.2197979951, -132698.35057238943, -132464.12664224228, -135149.5546280807, -140250.46858197078, -140706.01948571438, -8560.2710914935, -8057.669765671464, -139636.6673274836, -89831.07982052324, -81404.15923645011, -70119.16579236578, -0.199, 0.892625, -0.368125, 192.0, 0.0, 0.0, 0.0, 0.0, 0.0, 0.0, 0.0, 0.0, 0.0, 1.769893010860499E9, 0.0, 2026-01-31 14:56:50.860
20.0, -133132.28733924477, -10622.085407028844, -10589.831839779836, -10108.598781657074, -139825.6066233643, -132703.60323233643, -132477.5600406599, -135159.7023200634, -140270.02635836916, -140724.95141326802, -8548.983460543568, -8050.1372277900255, -139665.27756038637, -89822.13912274112, -81401.99111723795, -70118.02585339855, -0.199, 0.892625, -0.368125, 192.0, 0.0, 0.0, 0.0, 0.0, 0.0, 0.0, 0.0, 0.0, 0.0, 1.769893010866612E9, 0.0, 2026-01-31 14:56:50.866
22.0, -133125.73827811936, -10613.994075536022, -10570.117601170256, -10097.109985007046, -139845.8126003519, -132699.28934565655, -132480.89045058377, -135158.67413981847, -140250.89326511542, -140707.1594246816, -8550.50337916653, -8056.619233682065, -139637.94137691753, -89838.41119270459, -81393.11747468919, -70119.07638538795, -0.199, 0.892625, -0.368125, 192.0, 0.0, 0.0, 0.0, 0.0, 0.0, 0.0, 0.0, 0.0, 0.0, 1.769893010875696E9, 0.0, 2026-01-31 14:56:50.875
24.0, -133135.95302533545, -10612.585915635338, -10573.671528538649, -10096.014749528737, -139839.4647049266, -132702.26212766912, -132498.25775602553, -135162.2504189313, -140280.12934686296, -140736.14963724013, -8537.1146842378, -8044.817512609663, -139672.40776686763, -89826.56476814327, -81388.89299498714, -70115.47775453064, -0.199, 0.892625, -0.368125, 192.0, 0.0, 0.0, 0.0, 0.0, 0.0, 0.0, 0.0, 0.0, 0.0, 1.769893010882594E9, 0.0, 2026-01-31 14:56:50.882
26.0, -133134.96954857942, -10615.67045637017, -10558.584101031316, -10088.862191303038, -139854.28391150045, -132697.61296482242, -132502.99632585005, -135158.42827062946, -140261.37623326495, -140717.39652364212, -8541.763847084505, -8050.159579534481, -139647.99966192243, -89840.98164331695, -81382.74626526193, -70116.01419639758, -0.2005, 0.8923125000000001, -0.37106249999999996, 192.0, 124.5, 88.0, 13.5, 112.0, 122.0, 40.0, 0.0, 0.0, 0.0, 1.769893010890688E9, 0.0, 2026-01-31 14:56:50.890
28.0, -133136.53417069127, -10601.298284685408, -10557.600624275283, -10087.074051746613, -139849.6571003982, -132696.6294880664, -132517.48025625708, -135161.646921831, -140290.25468710123, -140746.4314396896, -8524.754169554017, -8033.216957237359, -139681.0578919718, -89823.92726229755, -81374.81139598029, -70108.21343758267, -0.2005, 0.8923125000000001, -0.37106249999999996, 192.0, 0.0, 0.0, 0.0, 0.0, 0.0, 0.0, 0.0, 0.0, 0.0, 1.769893010899682E9, 0.0, 2026-01-31 14:56:50.899
30.0, -133137.11531604713, -10614.597572636316, -10545.37422005823, -10088.19163896938, -139860.31888250337, -132699.11053170092, -132510.46180849813, -135160.5963898416, -140265.6677682004, -140722.13509346667, -8528.30809692241, -8037.150864261493, -139656.1133451597, -89834.94667231402, -81371.03395116735, -70107.25231257109, -0.2005, 0.8923125000000001, -0.37106249999999996, 192.0, 0.0, 0.0, 0.0, 0.0, 0.0, 0.0, 0.0, 0.0, 0.0, 1.769893010906709E9, 0.0, 2026-01-31 14:56:50.906
32.0, -133132.68967064496, -10590.122412457755, -10536.835853676303, -10084.66006334544, -139871.51710647548, -132701.9715549912, -132481.13631977278, -135159.9481892524, -140304.5598035526, -140760.33422474077, -8508.97383796857, -8025.997343778294, -139693.5748688668, -89822.89908205261, -81363.34495107472, -70102.89372240231, -0.2005, 0.8923125000000001, -0.37106249999999996, 192.0, 0.0, 0.0, 0.0, 0.0, 0.0, 0.0, 0.0, 0.0, 0.0, 1.769893010914708E9, 0.0, 2026-01-31 14:56:50.914
34.0, -133141.22803702689, -10610.931886545646, -10521.927240124613, -10079.675624331907, -139867.40438549573, -132708.29709867205, -132439.78559253045, -135158.31651190718, -140282.34216956404, -140736.70843085152, -8505.799890255916, -8030.1771199914365, -139670.23964765546, -89834.56669265828, -81357.26527658288, -70105.10654510338, -0.2005, 0.8923125000000001, -0.37106249999999996, 192.0, 0.0, 0.0, 0.0, 0.0, 0.0, 0.0, 0.0, 0.0, 0.0, 1.76989301092274E9, 0.0, 2026-01-31 14:56:50.922
36.0, -133136.95885383594, -10585.249732166498, -10510.907830108146, -10071.025499227704, -139869.70661517463, -132717.37190692092, -132414.37165908478, -135161.7586805533, -140305.7667977532, -140761.67532940808, -8487.940846436126, -8025.773826333741, -139695.6759328456, -89833.0020705464, -81348.36928228967, -70108.61576898287, -0.2005, 0.8923125000000001, -0.37106249999999996, 192.0, 0.0, 0.0, 0.0, 0.0, 0.0, 0.0, 0.0, 0.0, 0.0, 1.769893010930771E9, 0.0, 2026-01-31 14:56:50.930
38.0, -133151.6215981986, -10620.923116317168, -10506.973923084011, -10067.829199770595, -139846.39374570773, -132729.3747936934, -132404.4474845466, -135172.44281440292, -140270.87572465846, -140726.71720108, -8491.338311593332, -8037.463788683866, -139664.76347026392, -89853.1633440451, -81348.7492619454, -70120.48454528864, -0.2, 0.896, -0.384, 192.0, 124.5, 96.0, 14.0, 0.0, 122.0, 0.0, 0.0, 0.0, 0.0, 1.769893010938766E9, 0.0, 2026-01-31 14:56:50.938
40.0, -133140.73629864887, -10591.441165380618, -10499.016702057923, -10059.84962700005, -139841.34225146082, -132727.07256401452, -132429.503790081, -135169.5594393682, -140278.72118696227, -140733.8697593057, -8478.329596320344, -8035.318021216157, -139668.7644325214, -89855.84555337972, -81339.85326765219, -70123.14440287881, -0.2, 0.896, -0.384, 192.0, 0.0, 0.0, 0.0, 0.0, 0.0, 0.0, 0.0, 0.0, 0.0, 1.769893010947792E9, 0.0, 2026-01-31 14:56:50.947
42.0, -133159.5341157358, -10636.077599057866, -10504.98461782749, -10069.393821882466, -139818.36465816078, -132726.73728784767, -132448.50277286803, -135152.48270660432, -140243.42778246736, -140698.9563344665, -8484.901009190204, -8045.823341110152, -139634.9015396716, -89872.22938206547, -81344.77065143237, -70128.86644945937, -0.2, 0.896, -0.384, 192.0, 0.0, 0.0, 0.0, 0.0, 0.0, 0.0, 0.0, 0.0, 0.0, 1.769893010954804E9, 0.0, 2026-01-31 14:56:50.954
44.0, -133147.26300802984, -10610.306037700897, -10504.090548049278, -10072.120734706014, -139815.32482091486, -132717.68483134327, -132460.77388057398, -135163.81504104318, -140253.97780585024, -140706.44416885905, -8479.469535287564, -8044.079905042638, -139643.48460954244, -89875.47038501149, -81338.10983158468, -70125.91601919127, -0.2, 0.896, -0.384, 192.0, 0.0, 0.0, 0.0, 0.0, 0.0, 0.0, 0.0, 0.0, 0.0, 1.769893010961855E9, 0.0, 2026-01-31 14:56:50.961
46.0, -133163.71389194892, -10662.922044148689, -10519.89323137918, -10088.99630176977, -139756.0926981083, -132728.34661344846, -132467.6135143773, -135174.49917489282, -140203.55227035907, -140655.7057089455, -8492.679416260651, -8054.428762725444, -139599.00463807638, -89889.06024564031, -81350.51504975738, -70132.08510066093, -0.2, 0.896, -0.384, 192.0, 0.0, 0.0, 0.0, 0.0, 0.0, 0.0, 0.0, 0.0, 0.0, 1.769893010970889E9, 0.0, 2026-01-31 14:56:50.970
48.0, -133143.9773015949, -10638.715104903593, -10521.055522090855, -10090.270351203722, -139740.35707001176, -132738.65076764236, -132476.68832262617, -135171.6157998581, -140180.7311392702, -140632.48224645643, -8494.020520927968, -8060.128457561548, -139566.3934429161, -89899.72202774549, -81348.27987531184, -70133.89559196182, -0.2, 0.898, -0.378, 192.0, 124.5, 96.0, 14.0, 8.0, 122.0, 24.0, 0.0, 0.0, 0.0, 1.769893010978882E9, 0.0, 2026-01-31 14:56:50.978
50.0, -133155.30963603375, -10686.905465949234, -10544.256632835464, -10098.76401409674, -139679.64973207115, -132755.6380934284, -132478.90114532723, -135178.23191621684, -140127.64574618885, -140580.15681268656, -8506.783367011949, -8066.811629153684, -139526.54028255228, -89910.11558891721, -81362.11560512967, -70140.15408040931, -0.2, 0.898, -0.378, 192.0, 0.0, 0.0, 0.0, 0.0, 0.0, 0.0, 0.0, 0.0, 0.0, 1.769893010986896E9, 0.0, 2026-01-31 14:56:50.986
52.0, -133131.95206307794, -10666.140695350254, -10555.208987618566, -10100.730967608806, -139675.80523202484, -132759.05791033007, -132492.49100595605, -135191.17357625646, -140103.79643485506, -140555.01110017434, -8517.73572179505, -8073.874780401562, -139490.4198635125, -89924.75598153543, -81365.17779412006, -70142.88099323284, -0.2, 0.898, -0.378, 192.0, 0.0, 0.0, 0.0, 0.0, 0.0, 0.0, 0.0, 0.0, 0.0, 1.769893010994877E9, 0.0, 2026-01-31 14:56:50.994
54.0, -133136.75768813584, -10715.336884896384, -10581.874618753745, -10116.354836983066, -139615.0978940842, -132765.00347435518, -132486.7689593755, -135187.55259365472, -140067.47485011516, -140518.24248054536, -8533.672515591683, -8078.926274648461, -139461.94374107645, -89929.42749612659, -81381.85219548372, -70145.69731303422, -0.2, 0.898, -0.378, 192.0, 0.0, 0.0, 0.0, 0.0, 0.0, 0.0, 0.0, 0.0, 0.0, 1.769893011002959E9, 0.0, 2026-01-31 14:56:51.002
56.0, -133113.1318942466, -10708.877230748802, -10590.636502580226, -10129.520014467242, -139619.3000220418, -132766.7916139116, -132478.2752964825, -135187.12791051005, -140041.47977131364, -140491.75566336582, -8544.155483741222, -8089.118670120081, -139427.74557205982, -89941.96682476603, -81379.12528266017, -70143.64095254433, -0.2, 0.898, -0.378, 192.0, 0.0, 0.0, 0.0, 0.0, 0.0, 0.0, 0.0, 0.0, 0.0, 1.769893011010909E9, 0.0, 2026-01-31 14:56:51.010
58.0, -133116.10467625913, -10760.196836018185, -10615.67045637017, -10150.217729832857, -139568.941541784, -132789.59039325602, -132417.0985719083, -135184.1104250086, -140018.0998466134, -140467.97340726535, -8554.906672824225, -8095.466565545388, -139410.28885964025, -89945.16312422314, -81392.13399793315, -70149.22888865815, -0.194, 0.9, -0.38, 192.0, 124.5, 120.0, 14.0, 16.0, 122.0, 16.0, 0.0, 0.0, 0.0, 1.769893011017985E9, 0.0, 2026-01-31 14:56:51.017
60.0, -133094.5575946042, -10760.733277885114, -10620.654895383705, -10163.069982894658, -139577.97164654394, -132815.76428601317, -132335.04531801288, -135184.73627385334, -139996.8433376364, -140446.8063052662, -8567.401297974742, -8112.677408775975, -139382.90797268247, -89971.29231349139, -81394.70444854551, -70159.9130225078, -0.194, 0.9, -0.38, 192.0, 0.0, 0.0, 0.0, 0.0, 0.0, 0.0, 0.0, 0.0, 0.0, 1.769893011027013E9, 0.0, 2026-01-31 14:56:51.027
62.0, -133099.1173504731, -10806.643760996314, -10644.68302067316, -10184.125326171557, -139508.01068639883, -132854.43280392085, -132310.81602702333, -135186.27854422075, -139977.55378217148, -140426.4438660674, -8573.79389688896, -8121.819272258195, -139370.2568853208, -89983.02697933042, -81408.67428883008, -70174.03932500354, -0.194, 0.9, -0.38, 192.0, 0.0, 0.0, 0.0, 0.0, 0.0, 0.0, 0.0, 0.0, 0.0, 1.76989301103603E9, 0.0, 2026-01-31 14:56:51.036
64.0, -133072.42936759346, -10817.372598334861, -10645.398276495729, -10194.854163510105, -139466.43644171197, -132890.0167810937, -132336.96756803602, -135174.8568028041, -139907.05638015943, -140356.57231290013, -8585.46150749463, -8147.032040003782, -139294.01508498372, -90018.85682569229, -81407.51199811841, -70188.83617983296, -0.194, 0.9, -0.38, 192.0, 0.0, 0.0, 0.0, 0.0, 0.0, 0.0, 0.0, 0.0, 0.0, 1.769893011042048E9, 0.0, 2026-01-31 14:56:51.042
66.0, -133058.86185870908, -10856.219930198185, -10665.581901738871, -10210.142756717534, -139382.25977209327, -132924.28200534367, -132376.15017606618, -135153.46618336037, -139857.03317606845, -140306.7726262537, -8586.444984250664, -8156.173903486003, -139250.33977631805, -90026.99286067401, -81414.17281796609, -70202.64955790635, -0.194, 0.9, -0.38, 192.0, 0.0, 0.0, 0.0, 0.0, 0.0, 0.0, 0.0, 0.0, 0.0, 1.769893011050049E9, 0.0, 2026-01-31 14:56:51.050
68.0, -133023.7025646809, -10872.156723994818, -10667.347689550841, -10216.043617253736, -139354.90123688, -132947.05843294365, -132399.53010076645, -135118.46335154335, -139784.72528275553, -140233.6377183959, -8600.168955346222, -8179.598531675164, -139172.73451956923, -90061.258084924, -81416.43034415608, -70218.80986914753, -0.192, 0.88, -0.382, 192.0, 125.0, 0.0, 13.5, 64.0, 122.0, 8.0, 0.0, 0.0, 0.0, 1.76989301105911E9, 0.0, 2026-01-31 14:56:51.059
70.0, -133013.0407825757, -10901.34810225345, -10694.92974220869, -10233.008591295313, -139307.49318689026, -132965.31980816362, -132430.0625836924, -135086.634467439, -139766.2850935799, -140214.81754956456, -8601.912391413736, -8184.292398010779, -139157.2894641506, -90067.74009081603, -81427.38269893917, -70230.90216289785, -0.192, 0.88, -0.382, 192.0, 0.0, 0.0, 0.0, 0.0, 0.0, 0.0, 0.0, 0.0, 0.0, 1.769893011066106E9, 0.0, 2026-01-31 14:56:51.066
72.0, -132979.26729670374, -10919.16244258433, -10696.203791642642, -10235.31082097421, -139301.14529146496, -132957.00495922627, -132436.38812737324, -135036.7230220703, -139716.5748139113, -140164.10144139547, -8622.051313167967, -8202.240848808391, -139104.20407106925, -90099.34545747584, -81439.00560605593, -70243.46384328173, -0.192, 0.88, -0.382, 192.0, 0.0, 0.0, 0.0, 0.0, 0.0, 0.0, 0.0, 0.0, 0.0, 1.769893011074122E9, 0.0, 2026-01-31 14:56:51.074
74.0, -132958.5919330826, -10931.83588169049, -10718.220259931119, -10244.586794923163, -139291.623448327, -132943.83978174208, -132435.78463027294, -134998.72505649627, -139729.27060476193, -140176.97604620171, -8616.262211354044, -8191.623770192119, -139117.86098693145, -90092.99756205053, -81447.23104801548, -70240.98279964719, -0.192, 0.88, -0.382, 192.0, 0.0, 0.0, 0.0, 0.0, 0.0, 0.0, 0.0, 0.0, 0.0, 1.769893011082184E9, 0.0, 2026-01-31 14:56:51.082
76.0, -132938.40830783945, -10962.256605894161, -10726.155129212753, -10251.627594426584, -139303.24635544376, -132920.5716157641, -132410.1471793827, -134956.52496296467, -139706.85180507324, -140153.81963894604, -8633.808330751459, -8199.983322618404, -139088.55784995054, -90112.53298670448, -81456.61878068671, -70241.09455836947, -0.192, 0.88, -0.382, 192.0, 0.0, 0.0, 0.0, 0.0, 0.0, 0.0, 0.0, 0.0, 0.0, 1.769893011091208E9, 0.0, 2026-01-31 14:56:51.091
78.0, -132920.3257465751, -10968.157466430363, -10741.197853231175, -10259.718925919406, -139308.1860909684, -132906.5794237351, -132394.61271698627, -134924.83018932704, -139743.46396249105, -140189.9847614747, -8629.829720238415, -8187.265180023334, -139128.72393473674, -90099.61367840931, -81460.15035631065, -70233.71848269922, -0.19, 0.88, -0.382, 192.0, 125.0, 8.0, 13.5, 64.0, 122.0, 8.0, 0.0, 0.0, 0.0, 1.769893011098191E9, 0.0, 2026-01-31 14:56:51.098
80.0, -132914.51429301672, -11015.632571653436, -10746.361106200351, -10267.720850434405, -139313.52815789322, -132903.85251091153, -132369.01996958494, -134894.7447412902, -139722.31921223633, -140168.5270867976, -8645.56534833495, -8196.474098738921, -139106.41689377034, -90117.1150943178, -81466.4311965026, -70237.71944495672, -0.19, 0.88, -0.382, 192.0, 0.0, 0.0, 0.0, 0.0, 0.0, 0.0, 0.0, 0.0, 0.0, 1.769893011106212E9, 0.0, 2026-01-31 14:56:51.106
82.0, -132897.8622433975, -11013.598562908002, -10751.725524869624, -10269.46428650192, -139317.46206491734, -132911.4297522819, -132350.1327455202, -134873.19765963528, -139755.26568356346, -140201.36179940245, -8639.485673843106, -8192.562543459242, -139136.32352785155, -90115.93045186168, -81463.77133891241, -70241.16161360283, -0.19, 0.88, -0.382, 192.0, 0.0, 0.0, 0.0, 0.0, 0.0, 0.0, 0.0, 0.0, 0.0, 1.769893011114239E9, 0.0, 2026-01-31 14:56:51.114
84.0, -132894.55418521812, -11057.720906462779, -10753.9383475707, -10270.17954232449, -139297.45725362984, -132921.33157507557, -132332.09488774478, -134848.90131341235, -139720.35225872425, -140166.828354219, -8650.57213909294, -8206.465328510443, -139107.22155657073, -90141.03146088499, -81466.34178952477, -70253.79034922009, -0.19, 0.88, -0.382, 192.0, 0.0, 0.0, 0.0, 0.0, 0.0, 0.0, 0.0, 0.0, 0.0, 1.769893011122172E9, 0.0, 2026-01-31 14:56:51.122
86.0, -132873.96822857478, -11038.073723086563, -10756.17352201623, -10267.497332989853, -139295.5350036067, -132922.94090067636, -132345.4835826735, -134821.0733915655, -139736.15494205416, -140181.75931951517, -8642.458455855663, -8205.928886643516, -139118.86681543195, -90146.88761793228, -81460.35152201075, -70257.32192484403, -0.19, 0.88, -0.382, 192.0, 0.0, 0.0, 0.0, 0.0, 0.0, 0.0, 0.0, 0.0, 0.0, 1.769893011130228E9, 0.0, 2026-01-31 14:56:51.130
88.0, -132876.3151617426, -11084.408889342414, -10767.036469821509, -10278.98612963988, -139261.9179799459, -132930.36167983554, -132368.88585911822, -134788.95393478323, -139698.44754915804, -140144.14133359687, -8657.009441496068, -8220.792796706295, -139083.10402430344, -90167.92060946472, -81466.8335279028, -70263.58041329151, -0.192, 0.876, -0.382, 192.0, 124.5, 120.0, 13.5, 32.0, 122.0, 8.0, 0.0, 0.0, 0.0, 1.769893011138309E9, 0.0, 2026-01-31 14:56:51.138
90.0, -132844.48627763824, -11050.858920915, -10760.532112185016, -10273.264083059321, -139259.97337817829, -132922.15858962043, -132400.91590892267, -134755.53807682253, -139702.85084281574, -140148.00818538765, -8652.382630393819, -8225.86664269765, -139084.15455629284, -90173.84382174538, -81461.64792318916, -70264.76505574764, -0.192, 0.876, -0.382, 192.0, 0.0, 0.0, 0.0, 0.0, 0.0, 0.0, 0.0, 0.0, 0.0, 1.769893011146298E9, 0.0, 2026-01-31 14:56:51.146
92.0, -132850.54360038563, -11094.95891272532, -10769.22694077813, -10280.774269196305, -139233.64302320994, -132915.98950815076, -132420.83131323234, -134726.793733453, -139670.53022033337, -140116.1793012833, -8657.545883362995, -8235.500244557887, -139052.14685823285, -90186.1372811958, -81468.37579827021, -70268.96718370524, -0.192, 0.876, -0.382, 192.0, 0.0, 0.0, 0.0, 0.0, 0.0, 0.0, 0.0, 0.0, 0.0, 1.769893011154391E9, 0.0, 2026-01-31 14:56:51.154
94.0, -132829.89058850892, -11065.633423999956, -10769.785734389512, -10283.679995975495, -139257.55938977713, -132907.00410687973, -132442.89248500974, -134699.9492883622, -139692.18906071057, -140137.39110677136, -8656.741220562604, -8245.402067351588, -139071.90580033133, -90197.7378365681, -81468.30874303685, -70272.05172444007, -0.192, 0.876, -0.382, 192.0, 0.0, 0.0, 0.0, 0.0, 0.0, 0.0, 0.0, 0.0, 0.0, 1.769893011162321E9, 0.0, 2026-01-31 14:56:51.162
96.0, -132837.69134732382, -11110.023988488198, -10780.84984789489, -10289.446746044963, -139229.32913653005, -132910.60273773703, -132462.94199978616, -134670.4896891701, -139677.90629600364, -140122.39308624185, -8664.519627633052, -8257.226140168446, -139061.15461124835, -90211.81943557494, -81482.70326646607, -70279.51720708814, -0.192, 0.876, -0.382, 192.0, 0.0, 0.0, 0.0, 0.0, 0.0, 0.0, 0.0, 0.0, 0.0, 1.769893011171405E9, 0.0, 2026-01-31 14:56:51.171
98.0, -132804.92368995235, -11071.690746747345, -10766.790600632501, -10278.069708117213, -139259.52634328918, -132896.3199730301, -132478.6105726493, -134638.01260447653, -139691.29499093237, -140137.078182349, -8658.484656630118, -8260.78006753684, -139068.0165967961, -90224.71639212566, -81477.83058617481, -70279.29368964359, -0.197, 0.875, -0.379, 192.0, 124.5, 88.0, 13.5, 40.0, 122.0, 32.0, 0.0, 0.0, 0.0, 1.769893011177366E9, 0.0, 2026-01-31 14:56:51.177
100.0, -132810.26575687717, -11113.801433301143, -10773.786696647012, -10283.165905853022, -139227.74216267373, -132892.90015612842, -132498.59303219235, -134611.6151942748, -139682.68956931707, -140127.84691188895, -8655.578929850928, -8258.63430006913, -139064.1273932609, -90225.92338632625, -81483.01619088843, -70276.90205298687, -0.197, 0.875, -0.379, 192.0, 0.0, 0.0, 0.0, 0.0, 0.0, 0.0, 0.0, 0.0, 0.0, 1.769893011186386E9, 0.0, 2026-01-31 14:56:51.186
102.0, -132782.7954629416, -11087.091098677052, -10759.570987173438, -10272.481772003386, -139258.47581129978, -132876.69514139835, -132525.54923600546, -134589.44226377516, -139683.5612873508, -140128.29394677805, -8650.169807692744, -8260.243625669913, -139062.7192333602, -90236.54046494252, -81477.56236524133, -70274.97980296372, -0.197, 0.875, -0.379, 192.0, 0.0, 0.0, 0.0, 0.0, 0.0, 0.0, 0.0, 0.0, 0.0, 1.769893011194375E9, 0.0, 2026-01-31 14:56:51.194
104.0, -132795.2453846032, -11127.927735796899, -10763.549597686482, -10267.922016134504, -139238.35924129002, -132861.09362376854, -132552.30427411848, -134567.69401642014, -139689.93153452058, -140135.02182185912, -8642.99489772259, -8253.426343611043, -139071.23524799768, -90236.98749983162, -81487.39713280168, -70277.21497740924, -0.197, 0.875, -0.379, 192.0, 0.0, 0.0, 0.0, 0.0, 0.0, 0.0, 0.0, 0.0, 0.0, 1.769893011202344E9, 0.0, 2026-01-31 14:56:51.202
106.0, -132775.08411110452, -11106.782985542177, -10740.773170086524, -10252.767533393804, -139272.24448588426, -132823.92267273937, -132564.26245740204, -134539.28494921743, -139693.5301653779, -140138.70985969424, -8633.473054584629, -8248.933642975528, -139069.93884681928, -90247.58222670344, -81476.82475767432, -70274.82334075253, -0.197, 0.875, -0.379, 192.0, 0.0, 0.0, 0.0, 0.0, 0.0, 0.0, 0.0, 0.0, 0.0, 1.769893011210352E9, 0.0, 2026-01-31 14:56:51.210
108.0, -132784.80711994256, -11145.898538338964, -10749.915033568745, -10257.84137938516, -139251.65852924093, -132822.6933267943, -132572.37614063933, -134516.10619021728, -139709.04227602985, -140153.48436277919, -8624.621763780327, -8241.311698116268, -139089.2284022842, -90241.14492430032, -81483.15030135517, -70273.86221574096, -0.20450000000000002, 0.8775, -0.3805, 192.0, 124.5, 48.0, 13.5, 64.0, 122.0, 8.0, 0.0, 0.0, 0.0, 1.769893011218442E9, 0.0, 2026-01-31 14:56:51.218
110.0, -132756.42040448432, -11122.138633982973, -10734.40292291676, -10247.336059491165, -139280.5146313327, -132829.53296059763, -132582.12150122185, -134494.55910856236, -139700.83918581478, -140145.99652838666, -8621.917202701236, -8246.340840618712, -139081.070015558, -90256.41116576329, -81476.82475767432, -70274.51041633016, -0.20450000000000002, 0.8775, -0.3805, 192.0, 0.0, 0.0, 0.0, 0.0, 0.0, 0.0, 0.0, 0.0, 0.0, 1.769893011226435E9, 0.0, 2026-01-31 14:56:51.226
112.0, -132762.1424510649, -11129.402950930948, -10735.699324095169, -10247.514873446808, -139253.62548275298, -132851.30355969712, -132606.037867789, -134492.25687888346, -139717.11125577823, -140162.04508090558, -8609.1320048728, -8231.476930555931, -139101.6336204569, -90242.08369756743, -81480.04340887588, -70272.81168375156, -0.20450000000000002, 0.8775, -0.3805, 192.0, 0.0, 0.0, 0.0, 0.0, 0.0, 0.0, 0.0, 0.0, 0.0, 1.769893011233526E9, 0.0, 2026-01-31 14:56:51.233
114.0, -132746.04919505707, -11105.240715174761, -10711.760605783535, -10238.171844264489, -139284.85086975704, -132846.27441719465, -132622.08642030793, -134485.93133520262, -139696.70411309053, -140141.63793821787, -8607.857955438847, -8233.220366623445, -139073.64923639887, -90256.72409018566, -81476.91416465213, -70281.12653268893, -0.20450000000000002, 0.8775, -0.3805, 192.0, 0.0, 0.0, 0.0, 0.0, 0.0, 0.0, 0.0, 0.0, 0.0, 1.769893011242506E9, 0.0, 2026-01-31 14:56:51.242
116.0, -132741.087107788, -11083.939502708854, -10703.624570801803, -10223.73261734636, -139311.31533519214, -132820.41344885988, -132641.0630513505, -134468.228753594, -139747.3755177707, -140192.2422876647, -8589.55187672995, -8211.96385764645, -139129.41683881485, -90237.92627309874, -81479.99870538697, -70276.41031460886, -0.20450000000000002, 0.8775, -0.3805, 192.0, 0.0, 0.0, 0.0, 0.0, 0.0, 0.0, 0.0, 0.0, 0.0, 1.769893011250471E9, 0.0, 2026-01-31 14:56:51.250
118.0, -132717.66247959883, -11047.059124357596, -10684.424422314694, -10207.572306105174, -139368.66991146444, -132791.66910549035, -132646.40511827532, -134448.84979115127, -139770.75544247098, -140214.90695654237, -8586.020301106013, -8209.326351800722, -139149.95809196928, -90245.88349412484, -81472.51087099443, -70267.89429997138, -0.20825, 0.87775, -0.37925, 192.0, 124.5, 48.0, 13.5, 56.0, 122.0, 24.0, 0.0, 0.0, 0.0, 1.769893011258511E9, 0.0, 2026-01-31 14:56:51.258
120.0, -132711.44869464025, -11012.36921696296, -10688.201867127642, -10210.07570148417, -139369.2063533314, -132795.82652995904, -132667.99690341915, -134463.19961109158, -139824.5560913749, -140268.81936416856, -8564.562626428919, -8190.975569602915, -139206.2621362522, -90219.75430485659, -81467.81700465882, -70249.16353811783, -0.20825, 0.87775, -0.37925, 192.0, 0.0, 0.0, 0.0, 0.0, 0.0, 0.0, 0.0, 0.0, 0.0, 1.769893011265596E9, 0.0, 2026-01-31 14:56:51.265
122.0, -132700.85396776843, -10989.346920173994, -10672.801515197936, -10204.800689792715, -139374.32490281164, -132825.3531843845, -132681.5197088146, -134491.11693991625, -139795.96821021655, -140240.41029696589, -8565.434344462676, -8198.508107484355, -139180.11059523947, -90228.76205787207, -81467.2805627919, -70248.02359915062, -0.20825, 0.87775, -0.37925, 192.0, 0.0, 0.0, 0.0, 0.0, 0.0, 0.0, 0.0, 0.0, 0.0, 1.769893011274657E9, 0.0, 2026-01-31 14:56:51.274
124.0, -132684.8724704829, -10940.553062028059, -10658.608157468816, -10189.042709951724, -139377.2529813353, -132835.54557985612, -132704.07261897, -134524.21987345457, -139827.41711466518, -140272.21682932577, -8539.461617405608, -8178.2127235189355, -139211.5147961992, -90208.77959832903, -81463.3243040233, -70245.54255551608, -0.20825, 0.87775, -0.37925, 192.0, 0.0, 0.0, 0.0, 0.0, 0.0, 0.0, 0.0, 0.0, 0.0, 1.769893011281613E9, 0.0, 2026-01-31 14:56:51.281
126.0, -132669.89680169785, -10921.419968774315, -10632.76954087848, -10175.408145833988, -139402.1528246585, -132818.73706802572, -132704.74317130365, -134531.32772819136, -139813.4472743806, -140257.28586402963, -8531.146768468234, -8172.602435660653, -139193.63340063495, -90213.18289198673, -81461.26794353341, -70246.9283636723, -0.20825, 0.87775, -0.37925, 192.0, 0.0, 0.0, 0.0, 0.0, 0.0, 0.0, 0.0, 0.0, 0.0, 1.769893011289589E9, 0.0, 2026-01-31 14:56:51.289
128.0, -132653.13299335635, -10870.346232693939, -10617.749168604514, -10162.690003238917, -139437.2674151978, -132781.27554431863, -132706.21838643771, -134521.18003620865, -139872.92526637617, -140316.0262484582, -8501.262486131489, -8151.792961572763, -139255.30186358714, -90194.22861268862, -81452.90839110714, -70238.2782385681, -0.209125, 0.887875, -0.378625, 192.0, 124.5, 56.0, 14.0, 8.0, 122.0, 24.0, 0.0, 0.0, 0.0, 1.76989301129765E9, 0.0, 2026-01-31 14:56:51.297
130.0, -132661.53724927155, -10878.8175438425, -10605.209839965086, -10153.548139756696, -139462.50253468784, -132748.46318345825, -132697.6800200558, -134513.91571926067, -139877.10504258933, -140319.4684171043, -8497.954427952103, -8152.642327862064, -139261.09096540106, -90207.34908668388, -81455.99293184196, -70235.55132574456, -0.209125, 0.887875, -0.378625, 192.0, 0.0, 0.0, 0.0, 0.0, 0.0, 0.0, 0.0, 0.0, 0.0, 1.769893011306681E9, 0.0, 2026-01-31 14:56:51.306
132.0, -132660.79964170454, -10833.599964809415, -10591.374110147251, -10138.505415738275, -139491.11276759062, -132724.54681689106, -132695.15427293233, -134521.71647807557, -139930.43630485967, -140372.8890863525, -8473.993357896014, -8135.722057309396, -139310.04128575817, -90195.07797897792, -81448.39333872717, -70227.41529076282, -0.209125, 0.887875, -0.378625, 192.0, 0.0, 0.0, 0.0, 0.0, 0.0, 0.0, 0.0, 0.0, 0.0, 1.76989301131372E9, 0.0, 2026-01-31 14:56:51.313
134.0, -132673.3613220884, -10842.33949689144, -10581.651101309193, -10129.654124933973, -139494.75610193683, -132708.99000275016, -132690.3709996189, -134539.1061352618, -139921.80853149993, -140362.49552518077, -8468.96421539357, -8129.575327584187, -139306.66617234543, -90197.51431912355, -81447.7227863935, -70227.21412506272, -0.209125, 0.887875, -0.378625, 192.0, 0.0, 0.0, 0.0, 0.0, 0.0, 0.0, 0.0, 0.0, 0.0, 1.769893011321767E9, 0.0, 2026-01-31 14:56:51.321
136.0, -132659.57029575948, -10779.8440193944, -10567.971833702544, -10116.935982338904, -139523.65690751755, -132692.5614705755, -132693.321429887, -134570.35387401032, -139964.00862503157, -140407.02020013574, -8449.205273295078, -8106.687141261953, -139343.45714371887, -90179.8340892594, -81438.11153627772, -70214.96536910122, -0.209125, 0.887875, -0.378625, 192.0, 0.0, 0.0, 0.0, 0.0, 0.0, 0.0, 0.0, 0.0, 0.0, 1.769893011329705E9, 0.0, 2026-01-31 14:56:51.329
138.0, -132678.1222436574, -10808.208383108185, -10573.895045983201, -10125.541403954197, -139488.00587511132, -132692.9190984868, -132687.39821760633, -134602.85331044832, -139936.13599969578, -140376.80064163217, -8452.490979730008, -8102.976751682371, -139321.30656496366, -90184.50560385056, -81448.03571081588, -70212.43962197777, -0.209125, 0.887875, -0.378625, 192.0, 0.0, 0.0, 0.0, 0.0, 0.0, 0.0, 0.0, 0.0, 0.0, 1.769893011337825E9, 0.0, 2026-01-31 14:56:51.337
140.0, -132654.63056023486, -10764.93540584271, -10568.441220336106, -10119.864060862548, -139480.65215118555, -132688.64991529583, -132687.12999667288, -134626.8814357378, -139932.80558977195, -140372.95614158586, -8442.700915658585, -8093.656074244509, -139317.41736142844, -90181.51047009355, -81448.19217302707, -70202.0237090616, -0.20600000000000002, 0.894, -0.376, 192.0, 124.5, 72.0, 13.5, 120.0, 122.0, 32.0, 0.0, 0.0, 0.0, 1.769893011345774E9, 0.0, 2026-01-31 14:56:51.345
142.0, -132667.10283364094, -10804.028606895043, -10580.086479197322, -10121.540441696698, -139422.82818827967, -132704.2737846701, -132685.78889200557, -134648.02618599252, -139879.58608622386, -140320.4295421159, -8442.209177280567, -8089.722167220375, -139272.33389286208, -90186.96429574065, -81457.60225744275, -70201.0178805611, -0.20600000000000002, 0.894, -0.376, 192.0, 0.0, 0.0, 0.0, 0.0, 0.0, 0.0, 0.0, 0.0, 0.0, 1.769893011353865E9, 0.0, 2026-01-31 14:56:51.353
144.0, -132651.25544682212, -10765.360088987361, -10570.654043037182, -10114.47729044882, -139427.49970287082, -132698.43997936725, -132681.7208745147, -134664.45471816717, -139869.93013261916, -140309.9689257108, -8438.454084212075, -8091.376196310067, -139253.15609611943, -90199.30245867997, -81460.01624584392, -70209.71270915422, -0.20600000000000002, 0.894, -0.376, 192.0, 0.0, 0.0, 0.0, 0.0, 0.0, 0.0, 0.0, 0.0, 0.0, 1.76989301136287E9, 0.0, 2026-01-31 14:56:51.362
146.0, -132671.819051721, -10804.207420850686, -10576.219627406554, -10117.04774106118, -139385.74664422832, -132684.17956640478, -132655.47992652416, -134663.35948268886, -139838.63769038173, -140277.31302706158, -8439.57167143484, -8090.2809608317575, -139223.13770331594, -90203.54929012648, -81471.54974598286, -70220.01686334811, -0.20600000000000002, 0.894, -0.376, 192.0, 0.0, 0.0, 0.0, 0.0, 0.0, 0.0, 0.0, 0.0, 0.0, 1.76989301136989E9, 0.0, 2026-01-31 14:56:51.369
148.0, -132655.56933350198, -10766.857655865868, -10569.46940058105, -10112.532688681209, -139414.87096725358, -132662.69953998324, -132634.73750766963, -134659.09029949788, -139843.018632295, -140281.13517536345, -8437.180034778123, -8089.565705009188, -139223.0035928492, -90214.52399665404, -81470.6333244602, -70223.41432850533, -0.20600000000000002, 0.894, -0.376, 192.0, 0.0, 0.0, 0.0, 0.0, 0.0, 0.0, 0.0, 0.0, 0.0, 1.769893011377793E9, 0.0, 2026-01-31 14:56:51.377
150.0, -132672.5119557991, -10799.08887137042, -10589.563618846372, -10128.58124120012, -139363.26078930628, -132665.94054292925, -132609.1894637572, -134665.8405263234, -139832.33449844533, -140271.36746303647, -8440.733962146516, -8087.822268941673, -139221.7071916708, -90219.1955112452, -81483.91026066664, -70221.08974708198, -0.20400000000000001, 0.896, -0.37, 192.0, 124.5, 80.0, 14.0, 0.0, 122.0, 56.0, 0.0, 0.0, 0.0, 1.769893011385885E9, 0.0, 2026-01-31 14:56:51.385
152.0, -132656.93278991376, -10764.84599886489, -10591.530572358439, -10135.085598836613, -139359.66215844898, -132680.312714614, -132594.549071139, -134693.66844817024, -139802.71843704206, -140240.4997039437, -8447.417133738654, -8097.612333013098, -139186.16791798687, -90239.73676439963, -81484.7819787004, -70221.35796801544, -0.20400000000000001, 0.896, -0.37, 192.0, 0.0, 0.0, 0.0, 0.0, 0.0, 0.0, 0.0, 0.0, 0.0, 1.769893011393948E9, 0.0, 2026-01-31 14:56:51.393
154.0, -132668.3545313304, -10792.763327689569, -10612.563563890883, -10141.277032050733, -139288.29303840318, -132698.35057238943, -132584.60254485637, -134719.75293394958, -139766.6874249801, -140202.63584883642, -8453.161532063667, -8097.835850457651, -139158.87643800693, -90245.12353481335, -81500.87523470822, -70229.20343031925, -0.20400000000000001, 0.896, -0.37, 192.0, 0.0, 0.0, 0.0, 0.0, 0.0, 0.0, 0.0, 0.0, 0.0, 1.769893011403087E9, 0.0, 2026-01-31 14:56:51.403
156.0, -132642.02417636206, -10774.70311816968, -10612.876488313257, -10139.57829947213, -139289.14240469248, -132692.15913917532, -132571.61618132784, -134728.51481777607, -139721.96158432504, -140159.5863890155, -8464.046831613401, -8108.899963963028, -139106.01456237014, -90268.12347985787, -81503.98212718751, -70236.49009901167, -0.20400000000000001, 0.896, -0.37, 192.0, 0.0, 0.0, 0.0, 0.0, 0.0, 0.0, 0.0, 0.0, 0.0, 1.769893011409934E9, 0.0, 2026-01-31 14:56:51.409
158.0, -132643.90172289632, -10809.817708708968, -10634.155349034709, -10152.542311256208, -139241.0638023691, -132696.8753572554, -132545.9340269487, -134721.92105316176, -139708.99757254095, -140145.46008651974, -8465.700860703095, -8109.74933025233, -139099.86783264493, -90267.45292752421, -81515.56033081537, -70240.91574441383, -0.20400000000000001, 0.896, -0.37, 192.0, 0.0, 0.0, 0.0, 0.0, 0.0, 0.0, 0.0, 0.0, 0.0, 1.769893011418984E9, 0.0, 2026-01-31 14:56:51.418
160.0, -132634.53634196953, -10810.04122615352, -10634.9600118351, -10160.63364274903, -139249.13278211746, -132699.4681596122, -132503.35395376134, -134709.94051813372, -139676.74400529196, -140112.3795047259, -8479.000148654002, -8128.770664783796, -139063.38978569387, -90301.7628552631, -81517.03554594942, -70250.97402941872, -0.202, 0.908, -0.352, 192.0, 124.5, 88.0, 14.0, 48.0, 122.5, 0.0, 0.0, 0.0, 0.0, 1.769893011425984E9, 0.0, 2026-01-31 14:56:51.425
162.0, -132644.50521999662, -10831.923583975266, -10655.68007894517, -10178.336224357632, -139186.68200810935, -132714.89086328636, -132469.17813648918, -134713.047410613, -139671.08901394476, -140106.34453372296, -8479.782459709939, -8126.3790281270785, -139062.2721984711, -90305.92027973178, -81524.65749080868, -70251.17519511882, -0.202, 0.908, -0.352, 192.0, 0.0, 0.0, 0.0, 0.0, 0.0, 0.0, 0.0, 0.0, 0.0, 1.769893011434008E9, 0.0, 2026-01-31 14:56:51.434
164.0, -132626.8473418769, -10841.646592813326, -10666.140695350254, -10198.653960067506, -139145.82301924503, -132751.3912619819, -132444.18888618815, -134738.86367545888, -139601.28451601084, -140036.31651834448, -8499.072015174868, -8145.489769636366, -138984.93516265575, -90341.16898073781, -81529.41841237765, -70254.99734342068, -0.202, 0.908, -0.352, 192.0, 0.0, 0.0, 0.0, 0.0, 0.0, 0.0, 0.0, 0.0, 0.0, 1.769893011442068E9, 0.0, 2026-01-31 14:56:51.442
166.0, -132614.7550481266, -10867.060526259009, -10692.40399508524, -10211.573268362674, -139057.1760007353, -132791.42323630134, -132442.53485709845, -134771.3631118969, -139548.62380607412, -139986.11450029784, -8501.888334976236, -8150.4518569054435, -138944.61261565838, -90355.38469021139, -81544.37172941826, -70268.49779707167, -0.202, 0.908, -0.352, 192.0, 0.0, 0.0, 0.0, 0.0, 0.0, 0.0, 0.0, 0.0, 0.0, 1.769893011449142E9, 0.0, 2026-01-31 14:56:51.449
168.0, -132586.74831232408, -10898.040044074065, -10694.773279997502, -10205.560649104196, -139024.34128813044, -132799.84984396098, -132429.4590865921, -134758.73437627964, -139463.26249399933, -139899.9708771671, -8517.623963072772, -8171.261330993335, -138852.79164943597, -90394.07555986352, -81557.98394179154, -70288.99434673719, -0.202, 0.908, -0.352, 192.0, 0.0, 0.0, 0.0, 0.0, 0.0, 0.0, 0.0, 0.0, 0.0, 1.769893011458019E9, 0.0, 2026-01-31 14:56:51.458
170.0, -132561.31202713394, -10917.284896050083, -10709.480727849093, -10207.169974704979, -138996.98275291716, -132789.61274500046, -132411.13065613873, -134717.76362869306, -139463.48601144386, -139899.1662143667, -8508.526803079463, -8166.165133257525, -138851.4728965131, -90394.20967033025, -81564.86827908376, -70294.090544473, -0.202, 0.922, -0.336, 192.0, 124.5, 88.0, 14.0, 104.0, 122.5, 64.0, 0.0, 0.0, 0.0, 1.76989301146611E9, 0.0, 2026-01-31 14:56:51.466
172.0, -132549.4432508282, -10957.45098083627, -10711.984123228089, -10220.35750393361, -138993.8088052045, -132780.91791640734, -132372.73035916453, -134668.8803635693, -139425.7562668033, -139860.20712378112, -8517.221631672577, -8183.934770099494, -138808.7140093701, -90427.87139747995, -81567.86341284077, -70302.51715213266, -0.202, 0.922, -0.336, 192.0, 0.0, 0.0, 0.0, 0.0, 0.0, 0.0, 0.0, 0.0, 0.0, 1.769893011474058E9, 0.0, 2026-01-31 14:56:51.474
174.0, -132548.5938845389, -10964.9388152288, -10723.092940222376, -10239.870576843094, -138974.58630497294, -132783.91305016435, -132344.32129196182, -134649.90373252676, -139445.62696762406, -139879.85430715734, -8509.06324494639, -8186.415813734033, -138829.83640788036, -90439.40489761888, -81570.09858728631, -70308.68623360232, -0.202, 0.922, -0.336, 192.0, 0.0, 0.0, 0.0, 0.0, 0.0, 0.0, 0.0, 0.0, 0.0, 1.76989301148307E9, 0.0, 2026-01-31 14:56:51.483
176.0, -132546.26930311552, -11010.536373917625, -10725.59633560137, -10257.193178795957, -138949.5970546719, -132797.30174509308, -132295.70624777154, -134649.59080810437, -139392.76509198727, -139826.38893442022, -8520.283820662955, -8203.939581386994, -138781.02019798997, -90475.70413061431, -81577.58642167883, -70322.4996116757, -0.202, 0.922, -0.336, 192.0, 0.0, 0.0, 0.0, 0.0, 0.0, 0.0, 0.0, 0.0, 0.0, 1.769893011491141E9, 0.0, 2026-01-31 14:56:51.491
178.0, -132518.08375335738, -11003.584981392025, -10732.860652549345, -10265.306862033232, -138929.5922433844, -132816.9042249804, -132257.28359905287, -134663.65005536677, -139400.02940893525, -139833.63089962373, -8508.68326529065, -8206.91236339955, -138785.49054688105, -90487.84112785353, -81579.9557065911, -70332.89317284741, -0.202, 0.922, -0.336, 192.0, 0.0, 0.0, 0.0, 0.0, 0.0, 0.0, 0.0, 0.0, 0.0, 1.769893011500063E9, 0.0, 2026-01-31 14:56:51.500
180.0, -132492.84863386734, -11044.04163885613, -10740.817873575435, -10271.632405714085, -138872.10355664534, -132843.03341424864, -132230.81913361777, -134673.14954676028, -139332.99652731378, -139766.2850935799, -8516.372265383276, -8228.77236947684, -138719.0835141043, -90519.60295672453, -81590.77395090747, -70345.27603927566, -0.2, 0.913, -0.343, 192.0, 124.5, 104.0, 14.0, 32.0, 122.5, 8.0, 0.0, 0.0, 0.0, 1.769893011506176E9, 0.0, 2026-01-31 14:56:51.506
182.0, -132446.62522633377, -11030.250612527207, -10747.054010278465, -10275.342795293665, -138832.33980325935, -132865.4075104484, -132241.79384014534, -134681.46439569764, -139304.4309978999, -139738.85950313325, -8504.615247799784, -8234.896747457595, -138691.65792365765, -90527.24725332824, -81590.21515729609, -70346.97477185426, -0.2, 0.913, -0.343, 192.0, 0.0, 0.0, 0.0, 0.0, 0.0, 0.0, 0.0, 0.0, 0.0, 1.769893011513183E9, 0.0, 2026-01-31 14:56:51.513
184.0, -132426.73217376854, -11093.304883635627, -10758.833379606413, -10286.295150076765, -138766.71508153857, -132878.9526675883, -132253.6179129622, -134667.11457575735, -139227.89862488493, -139660.53899056185, -8509.085596690846, -8255.661518056575, -138620.6240797787, -90553.4211460854, -81606.73309644856, -70359.93878363834, -0.2, 0.913, -0.343, 192.0, 0.0, 0.0, 0.0, 0.0, 0.0, 0.0, 0.0, 0.0, 0.0, 1.769893011522185E9, 0.0, 2026-01-31 14:56:51.522
186.0, -132388.8459669168, -11086.889932976954, -10762.722583141636, -10289.737318722882, -138761.5071250805, -132874.43761520836, -132265.55374450132, -134644.31579641294, -139213.03471482216, -139645.0715833988, -8497.39563434072, -8256.801457023796, -138596.8641754227, -90558.29382637666, -81607.67186971568, -70363.09037960654, -0.2, 0.913, -0.343, 192.0, 0.0, 0.0, 0.0, 0.0, 0.0, 0.0, 0.0, 0.0, 0.0, 1.769893011529194E9, 0.0, 2026-01-31 14:56:51.529
188.0, -132379.77115866795, -11153.274614009217, -10774.032565836022, -10302.433109573498, -138728.0465636309, -132858.90315281192, -132266.58192474628, -134612.15163614173, -139174.23208644774, -139605.3525335017, -8502.268314631978, -8260.914178003572, -138563.53772443984, -90572.15190793895, -81622.37931756728, -70371.71815296628, -0.2, 0.913, -0.343, 192.0, 0.0, 0.0, 0.0, 0.0, 0.0, 0.0, 0.0, 0.0, 0.0, 1.769893011537192E9, 0.0, 2026-01-31 14:56:51.537
190.0, -132345.34947220678, -11146.323221483615, -10773.786696647012, -10310.435034088498, -138755.67331977765, -132831.36580364298, -132274.13681437218, -134574.0642635899, -139189.16305174388, -139619.9035191421, -8496.412157584686, -8258.947224491505, -138571.78551814385, -90582.85839353304, -81618.93714892116, -70370.39940004342, -0.195, 0.9165000000000001, -0.3435, 192.0, 125.0, 8.0, 14.0, 96.0, 122.5, 32.0, 0.0, 0.0, 0.0, 1.769893011546268E9, 0.0, 2026-01-31 14:56:51.546
192.0, -132350.5350769204, -11225.537803833224, -10790.595208477404, -10326.19301392949, -138734.5062177785, -132819.1393994259, -132226.97463357146, -134533.38408868125, -139182.45752840728, -139611.38750450464, -8501.888334976236, -8264.87043677216, -138568.07512856426, -90599.0857600076, -81627.520218792, -70368.0077633867, -0.195, 0.9165000000000001, -0.3435, 192.0, 0.0, 0.0, 0.0, 0.0, 0.0, 0.0, 0.0, 0.0, 0.0, 1.76989301155331E9, 0.0, 2026-01-31 14:56:51.553
194.0, -132325.97050976404, -11231.170443435962, -10788.605903220881, -10320.895650493581, -138764.21168615957, -132813.37264935646, -132160.96993219494, -134501.55520457687, -139199.06487453758, -139629.8053419358, -8495.54043955093, -8268.737288562928, -138575.13827981215, -90619.22468176183, -81617.66309948721, -70362.88921390644, -0.195, 0.9165000000000001, -0.3435, 192.0, 0.0, 0.0, 0.0, 0.0, 0.0, 0.0, 0.0, 0.0, 0.0, 1.76989301156124E9, 0.0, 2026-01-31 14:56:51.561
196.0, -132335.11237324626, -11315.235354332372, -10810.398854064806, -10327.779987785816, -138720.491674005, -132822.0451262051, -132128.76106843486, -134486.8924602142, -139182.92691504085, -139612.37098126067, -8496.34510235132, -8272.134753720136, -138568.38805298664, -90634.02153659124, -81624.14510537924, -70367.65013547541, -0.195, 0.9165000000000001, -0.3435, 192.0, 0.0, 0.0, 0.0, 0.0, 0.0, 0.0, 0.0, 0.0, 0.0, 1.769893011570335E9, 0.0, 2026-01-31 14:56:51.570
198.0, -132299.61780305122, -11312.106110108627, -10811.784662221035, -10326.572993585229, -138730.41584854317, -132822.4027541164, -132131.3762225361, -134463.84781168078, -139169.15824045637, -139596.68005665304, -8497.999131441013, -8282.371852680666, -138551.42307894505, -90655.85919092408, -81616.32199481988, -70369.97471689877, -0.195, 0.9165000000000001, -0.3435, 192.0, 0.0, 0.0, 0.0, 0.0, 0.0, 0.0, 0.0, 0.0, 0.0, 1.769893011579324E9, 0.0, 2026-01-31 14:56:51.579
200.0, -132295.81800649382, -11361.481113610402, -10842.205386424708, -10354.825598576737, -138651.00010049346, -132835.56793160058, -132153.3032838468, -134456.5834947328, -139139.96686219776, -139567.1534022276, -8505.554021066908, -8282.394204425122, -138530.5018461349, -90657.40146129149, -81620.05473614392, -70361.68221970585, -0.1915, 0.90225, -0.35175, 192.0, 125.0, 16.0, 13.5, 96.0, 122.0, 96.0, 0.0, 0.0, 0.0, 1.769893011586404E9, 0.0, 2026-01-31 14:56:51.586
202.0, -132269.219430592, -11357.703668797454, -10859.840912799944, -10394.298779284809, -138588.03523636286, -132856.39975743293, -132189.66957207557, -134466.9323524156, -139059.05354726955, -139487.2682675443, -8527.302268421921, -8293.2571522304, -138440.80429563575, -90680.6025720361, -81617.19371285364, -70354.26144054669, -0.1915, 0.90225, -0.35175, 192.0, 0.0, 0.0, 0.0, 0.0, 0.0, 0.0, 0.0, 0.0, 0.0, 1.769893011593366E9, 0.0, 2026-01-31 14:56:51.593
204.0, -132266.224296835, -11402.138936774605, -10887.467668946705, -10434.35310534872, -138452.04722309677, -132895.00122010722, -132208.4003339291, -134463.06550062486, -138962.51636296706, -139390.37345533055, -8549.698716366138, -8300.812041856294, -138357.74521323983, -90694.7065227874, -81637.06441367441, -70369.0582953761, -0.1915, 0.90225, -0.35175, 192.0, 0.0, 0.0, 0.0, 0.0, 0.0, 0.0, 0.0, 0.0, 0.0, 1.76989301160139E9, 0.0, 2026-01-31 14:56:51.601
206.0, -132229.47802895046, -11392.125355258628, -10887.735889880169, -10439.337544362254, -138407.3213824417, -132920.5269122752, -132210.79197058582, -134435.97518634502, -138861.5758850069, -139288.36009363653, -8573.168048044212, -8312.79257688434, -138246.4335258524, -90730.49166566035, -81644.86517248931, -70391.8123712316, -0.1915, 0.90225, -0.35175, 192.0, 0.0, 0.0, 0.0, 0.0, 0.0, 0.0, 0.0, 0.0, 0.0, 1.769893011609556E9, 0.0, 2026-01-31 14:56:51.609
208.0, -132205.3604966832, -11414.432396225024, -10894.709634150224, -10434.844843726736, -138331.07958210463, -132943.1245259195, -132213.92121480958, -134395.3173631808, -138819.1746257752, -139245.22122683778, -8581.684062681683, -8306.176460525568, -138208.18969108936, -90738.9629768089, -81662.29953316445, -70416.28753141017, -0.1915, 0.90225, -0.35175, 192.0, 0.0, 0.0, 0.0, 0.0, 0.0, 0.0, 0.0, 0.0, 0.0, 1.769893011617455E9, 0.0, 2026-01-31 14:56:51.617
210.0, -132157.81833622674, -11407.369244977146, -10874.72717460718, -10418.840994696737, -138343.0601171327, -132957.80962202666, -132209.22734847397, -134320.1484465776, -138764.0552239484, -139191.9570198008, -8591.004740119546, -8325.041332845847, -138145.00130951422, -90775.28456154879, -81663.79710004295, -70444.11545325702, -0.19675, 0.8871249999999999, -0.354875, 192.0, 124.5, 88.0, 13.5, 32.0, 122.0, 104.0, 0.0, 0.0, 0.0, 1.769893011625367E9, 0.0, 2026-01-31 14:56:51.625
212.0, -132141.52391451882, -11407.928038588529, -10868.53574139306, -10403.172421833566, -138375.6489605485, -132934.07206941512, -132189.17783369755, -134214.84937844865, -138808.51284367, -139234.9170726439, -8573.033937577478, -8317.240574030946, -138186.9108303679, -90772.3788347696, -81659.30439940744, -70448.47404342581, -0.19675, 0.8871249999999999, -0.354875, 192.0, 0.0, 0.0, 0.0, 0.0, 0.0, 0.0, 0.0, 0.0, 0.0, 1.769893011634424E9, 0.0, 2026-01-31 14:56:51.634
214.0, -132127.46466725646, -11388.68318661251, -10842.607717824903, -10380.172476789056, -138480.85862169965, -132863.30644646962, -132135.86892317163, -134125.42004888298, -138863.34167281887, -139288.40479712543, -8570.150562542745, -8313.105501306713, -138236.44229608087, -90783.48765176388, -81643.54641956645, -70438.2816479542, -0.19675, 0.8871249999999999, -0.354875, 192.0, 0.0, 0.0, 0.0, 0.0, 0.0, 0.0, 0.0, 0.0, 0.0, 1.769893011641378E9, 0.0, 2026-01-31 14:56:51.641
216.0, -132130.7950771803, -11365.43737237899, -10838.76321777859, -10374.942168586513, -138546.32688120924, -132809.41639058787, -132075.29569569774, -134095.06637991266, -138975.03333986204, -139398.24126937884, -8549.721068110593, -8280.248436957412, -138348.31277707967, -90753.64807291604, -81627.00612866953, -70414.72290929829, -0.19675, 0.8871249999999999, -0.354875, 192.0, 0.0, 0.0, 0.0, 0.0, 0.0, 0.0, 0.0, 0.0, 0.0, 1.769893011649394E9, 0.0, 2026-01-31 14:56:51.649
218.0, -132124.71540268845, -11350.595814060667, -10822.692313515225, -10372.304662740788, -138611.30340234083, -132775.4864425047, -131992.7954069132, -134091.49010079983, -139017.14402641583, -139441.42483966646, -8558.617062403806, -8276.985082266938, -138391.18342294497, -90759.12425030759, -81621.2617303445, -70406.18454291637, -0.19675, 0.8871249999999999, -0.354875, 192.0, 0.0, 0.0, 0.0, 0.0, 0.0, 0.0, 0.0, 0.0, 0.0, 1.769893011657523E9, 0.0, 2026-01-31 14:56:51.657
220.0, -132122.1226003316, -11313.871897920597, -10820.121862902864, -10358.915967812058, -138628.55894906033, -132761.7401196647, -131936.17843820792, -134105.59405155113, -139081.1370707914, -139506.1331398646, -8540.065114505902, -8250.699430787496, -138461.3902522791, -90728.32354644818, -81609.6164714833, -70388.54901654113, -0.19737500000000002, 0.8825624999999999, -0.35743749999999996, 192.0, 124.5, 104.0, 13.5, 56.0, 122.0, 96.0, 0.0, 0.0, 0.0, 1.769893011664524E9, 0.0, 2026-01-31 14:56:51.664
222.0, -132121.56380672025, -11310.519136252302, -10809.281266842041, -10332.607964588162, -138639.15367593215, -132758.90144811888, -131915.12309493104, -134103.49298757233, -139069.0224252966, -139494.2867153033, -8548.82699833238, -8249.470084842455, -138446.10165907166, -90731.83277032766, -81613.72919246307, -70389.19721713034, -0.19737500000000002, 0.8825624999999999, -0.35743749999999996, 192.0, 0.0, 0.0, 0.0, 0.0, 0.0, 0.0, 0.0, 0.0, 0.0, 1.769893011673543E9, 0.0, 2026-01-31 14:56:51.673
224.0, -132116.24409153988, -11264.005156040806, -10803.268647583564, -10302.723682251417, -138646.68621381358, -132744.8869043454, -131938.8382957981, -134096.38513283554, -139104.65110595836, -139529.44600933147, -8534.924213281181, -8225.509014786365, -138481.0374356553, -90704.54129034774, -81613.19275059614, -70381.01647865969, -0.19737500000000002, 0.8825624999999999, -0.35743749999999996, 192.0, 0.0, 0.0, 0.0, 0.0, 0.0, 0.0, 0.0, 0.0, 0.0, 1.76989301168156E9, 0.0, 2026-01-31 14:56:51.681
226.0, -132123.9777951214, -11259.423048427469, -10793.880914912334, -10282.294187819265, -138653.727013317, -132717.41661040983, -131959.49130767482, -134072.06643486815, -139079.10306204594, -139505.50729101984, -8543.26141396301, -8218.289401327302, -138461.2337900679, -90697.99222922233, -81622.53577977845, -70375.58500475706, -0.19737500000000002, 0.8825624999999999, -0.35743749999999996, 192.0, 0.0, 0.0, 0.0, 0.0, 0.0, 0.0, 0.0, 0.0, 0.0, 1.769893011689486E9, 0.0, 2026-01-31 14:56:51.689
228.0, -132113.94186186098, -11186.444602780892, -10786.594246219904, -10261.93174862048, -138696.50825220445, -132672.24373486565, -131972.16474678097, -134053.3803765035, -139136.4799900627, -139562.16896321403, -8530.677381834672, -8188.673339924019, -138508.37361912415, -90659.12254561455, -81621.90993093372, -70356.47426324777, -0.19737500000000002, 0.8825624999999999, -0.35743749999999996, 192.0, 0.0, 0.0, 0.0, 0.0, 0.0, 0.0, 0.0, 0.0, 0.0, 1.76989301169749E9, 0.0, 2026-01-31 14:56:51.697
230.0, -132117.89812062957, -11174.151143330473, -10783.80027816299, -10256.589681695663, -138725.56551999637, -132632.07765007945, -131959.60306639707, -134049.80409739068, -139143.36432735497, -139568.6509691061, -8533.985440014058, -8166.276891979801, -138525.11507572117, -90629.77470514474, -81629.37541358179, -70336.22358277126, -0.19737500000000002, 0.8825624999999999, -0.35743749999999996, 192.0, 0.0, 0.0, 0.0, 0.0, 0.0, 0.0, 0.0, 0.0, 0.0, 1.769893011705523E9, 0.0, 2026-01-31 14:56:51.705
232.0, -132098.6309169091, -11088.47690683328, -10770.523341956537, -10239.959983820914, -138783.27772417996, -132586.39068441282, -131948.42719416943, -134060.37647251802, -139210.7995403766, -139634.23098733794, -8517.199279928122, -8129.597679328643, -138582.58141071576, -90578.65626557545, -81627.00612866953, -70308.68623360232, -0.2, 0.882, -0.366, 192.0, 124.5, 96.0, 13.5, 72.0, 122.0, 72.0, 0.0, 0.0, 0.0, 1.769893011713632E9, 0.0, 2026-01-31 14:56:51.713
234.0, -132112.5784054492, -11074.95410143782, -10770.769211145545, -10226.83950982565, -138807.95405005862, -132555.1429456643, -131936.42430739693, -134071.32882730113, -139230.89375864193, -139657.67796727156, -8517.668666561683, -8103.066158660193, -138608.08475113925, -90536.74674472175, -81637.75731775252, -70285.57452983553, -0.2, 0.882, -0.366, 192.0, 0.0, 0.0, 0.0, 0.0, 0.0, 0.0, 0.0, 0.0, 0.0, 1.769893011720722E9, 0.0, 2026-01-31 14:56:51.720
236.0, -132095.90400408555, -10982.551989859581, -10761.627347663325, -10196.530544344252, -138874.11521364632, -132516.83205566788, -131941.92283653293, -134086.72917923084, -139297.2337361853, -139722.45332270305, -8509.197355413122, -8072.69013794543, -138672.86010657073, -90487.99759006473, -81639.34429160885, -70257.45603531075, -0.2, 0.882, -0.366, 192.0, 0.0, 0.0, 0.0, 0.0, 0.0, 0.0, 0.0, 0.0, 0.0, 1.769893011728653E9, 0.0, 2026-01-31 14:56:51.728
238.0, -132117.27227178484, -10965.318794884539, -10757.64873715028, -10161.483009038331, -138897.36102787984, -132476.0177702925, -131933.0938974731, -134091.26658335526, -139320.72541960783, -139747.62138695974, -8506.939829223136, -8043.990498064816, -138699.05635107236, -90441.66242380887, -81649.40257661373, -70232.48913675417, -0.2, 0.882, -0.366, 192.0, 0.0, 0.0, 0.0, 0.0, 0.0, 0.0, 0.0, 0.0, 0.0, 1.769893011737737E9, 0.0, 2026-01-31 14:56:51.737
240.0, -132118.6804316855, -10875.040099029553, -10743.500082910072, -10119.506432951264, -138994.72522672717, -132412.5611677839, -131931.57397885012, -134091.24423161082, -139395.42494957746, -139822.41032390718, -8491.651236015707, -8007.266581924747, -138766.42450886065, -90395.2825540641, -81645.35691086733, -70204.1694765293, -0.2, 0.882, -0.366, 192.0, 0.0, 0.0, 0.0, 0.0, 0.0, 0.0, 0.0, 0.0, 0.0, 1.769893011744627E9, 0.0, 2026-01-31 14:56:51.744
242.0, -132147.96121692195, -10849.581462094959, -10743.969469543634, -10097.467612918332, -139039.18284644876, -132346.91409431864, -131922.9909089793, -134088.33850483163, -139463.84363935515, -139889.7114264621, -8490.399538326208, -7972.308453596646, -138840.94522487465, -90344.074707517, -81660.6678558192, -70175.24631920413, -0.19, 0.904, -0.37, 192.0, 125.0, 8.0, 14.0, 32.0, 122.0, 56.0, 0.0, 0.0, 0.0, 1.769893011752724E9, 0.0, 2026-01-31 14:56:51.752
244.0, -132148.60941751115, -10752.41842894774, -10725.55163211246, -10075.808772541139, -139125.12530387944, -132281.51289004242, -131929.71878406033, -134104.36470560607, -139534.69866927847, -139960.6782151077, -8479.625997498752, -7939.451389247345, -138906.23467042862, -90296.55489880501, -81655.52695459449, -70135.57197279597, -0.19, 0.904, -0.37, 192.0, 0.0, 0.0, 0.0, 0.0, 0.0, 0.0, 0.0, 0.0, 0.0, 1.769893011761785E9, 0.0, 2026-01-31 14:56:51.761
246.0, -132193.2458511884, -10728.8820420363, -10727.853861791356, -10063.738830535272, -139140.90563546488, -132236.65293892063, -131946.147316235, -134131.72324081938, -139583.15725125757, -140006.45458775217, -8476.139125363723, -7911.3105429781135, -138961.91286586676, -90248.65511043729, -81669.74266406806, -70106.73822244862, -0.19, 0.904, -0.37, 192.0, 0.0, 0.0, 0.0, 0.0, 0.0, 0.0, 0.0, 0.0, 0.0, 1.769893011769782E9, 0.0, 2026-01-31 14:56:51.769
248.0, -132198.02912450186, -10637.19518628063, -10703.848088246357, -10028.780702207172, -139207.6479444084, -132192.7541128104, -131962.21822049835, -134167.39662497005, -139627.9054436571, -140050.97926270714, -8463.44333451311, -7882.27562693067, -138994.3452470714, -90208.66783960674, -81662.36658839781, -70074.28348949952, -0.19, 0.904, -0.37, 192.0, 0.0, 0.0, 0.0, 0.0, 0.0, 0.0, 0.0, 0.0, 0.0, 1.769893011776866E9, 0.0, 2026-01-31 14:56:51.776
250.0, -132236.02709007586, -10611.20010747911, -10704.943323724667, -10007.591248463541, -139200.4059792049, -132175.02917945734, -131989.8449766451, -134217.3751255721, -139661.18719115105, -140087.52436489158, -8447.864168627759, -7849.239748625726, -139045.32957617397, -90160.20925762765, -81669.07211173441, -70050.81415782144, -0.19, 0.904, -0.37, 192.0, 0.0, 0.0, 0.0, 0.0, 0.0, 0.0, 0.0, 0.0, 0.0, 1.76989301178483E9, 0.0, 2026-01-31 14:56:51.784
